Tektronix:  IConnect
Version 6.1.0

File Created: April 06, 2017 at 12:33PM
Created By: Tek_Local_Admin

Format: Waveform
Type: Frequency Domain

== Begin Header ==

Type: Scattering

Data Type: dBMagnitude/Phase
Samples: 501
Step Size: 40meg
First Step: 0
Reference Impedance: 50

== End Header ==

Data:
-11.107	180
-11.243	166.7
-11.639	153.39
-12.288	139.96
-13.197	126.05
-14.405	111.09
-15.993	94.219
-18.052	74.071
-20.54	48.158
-22.778	13.13
-23.158	-27.129
-21.581	-59.096
-19.447	-80.53
-17.37	-96.543
-15.528	-110.83
-14.026	-124.93
-12.917	-139.09
-12.191	-153.06
-11.79	-166.56
-11.631	-179.54
-11.641	167.74
-11.789	154.83
-12.095	141.35
-12.592	127.19
-13.278	112.5
-14.079	97.424
-14.844	81.817
-15.387	65.039
-15.59	46.322
-15.458	25.594
-15.104	3.8941
-14.695	-17.116
-14.364	-35.801
-14.115	-50.958
-13.785	-62.317
-13.167	-71.22
-12.265	-80.104
-11.337	-90.534
-10.674	-102.34
-10.419	-114.26
-10.55	-124.8
-10.879	-132.89
-11.12	-138.71
-11.1	-144.13
-10.965	-151.18
-11.039	-160.32
-11.588	-170.4
-12.731	-179.33
-14.36	175.47
-16.011	175.93
-17.054	-179.87
-17.543	-176.68
-18.106	-174.99
-18.905	-170.73
-19.144	-161.32
-18.056	-153.21
-16.471	-153.02
-15.313	-158.68
-14.761	-166.26
-14.611	-173.32
-14.521	-179.37
-14.247	174.03
-13.854	164.64
-13.618	151.52
-13.759	135.19
-14.332	116.75
-15.212	97.353
-16.092	77.945
-16.569	59.141
-16.346	41.046
-15.451	23.323
-14.211	5.759
-13	-11.297
-12.049	-27.01
-11.393	-40.457
-10.91	-51.181
-10.417	-59.627
-9.8232	-66.983
-9.1733	-74.398
-8.5949	-82.33
-8.1981	-90.475
-8.0089	-98.098
-7.9459	-104.57
-7.8723	-109.97
-7.719	-115.11
-7.5465	-120.76
-7.4747	-127.04
-7.5913	-133.46
-7.9024	-139.23
-8.3168	-143.73
-8.6943	-147.07
-8.9783	-150.14
-9.2674	-153.65
-9.7161	-157.31
-10.383	-159.86
-11.117	-159.84
-11.537	-157.1
-11.368	-154.33
-10.859	-154.56
-10.455	-157.83
-10.358	-162.37
-10.5	-166.55
-10.682	-169.93
-10.744	-173.4
-10.719	-178.55
-10.836	173.68
-11.368	163.52
-12.508	152.08
-14.329	140.54
-16.822	129.38
-19.974	117.07
-23.802	96.998
-26.721	52.384
-23.752	1.3538
-19.309	-25.353
-15.962	-42.025
-13.586	-54.912
-11.887	-65.399
-10.606	-73.973
-9.5514	-81.27
-8.6426	-88.023
-7.8901	-94.677
-7.3266	-101.15
-6.941	-106.99
-6.6474	-111.85
-6.3305	-116
-5.9501	-120.22
-5.5864	-125.18
-5.3691	-130.82
-5.375	-136.37
-5.5661	-140.83
-5.777	-143.65
-5.8125	-145.44
-5.639	-147.74
-5.4373	-151.62
-5.4339	-156.76
-5.7534	-161.93
-6.3702	-165.52
-7.0668	-166.15
-7.4489	-163.98
-7.2752	-161.7
-6.7811	-162.06
-6.3602	-165.2
-6.2199	-169.74
-6.3722	-174.19
-6.7021	-177.51
-7.0265	-179.47
-7.1978	179.14
-7.2193	177.07
-7.2356	173.55
-7.4148	168.68
-7.8649	163.13
-8.6206	157.66
-9.6701	152.81
-11.013	148.77
-12.743	145.58
-15.145	143.9
-18.838	147.5
-24.13	175.96
-22.084	-125.51
-16.805	-110.96
-13.433	-111.45
-11.243	-115.23
-9.7265	-119.38
-8.5576	-123.11
-7.5333	-126.65
-6.5899	-130.68
-5.7835	-135.62
-5.2065	-141.26
-4.9068	-146.88
-4.8494	-151.57
-4.9059	-154.65
-4.884	-156.17
-4.6399	-157.2
-4.2104	-159.22
-3.783	-162.94
-3.5447	-168.02
-3.6004	-173.53
-3.9655	-178.34
-4.5653	178.7
-5.1997	178.47
-5.564	-179.31
-5.4649	-176.67
-5.0398	-175.87
-4.599	-177.47
-4.3577	179.47
-4.3672	176.23
-4.5516	173.86
-4.7649	172.78
-4.8543	172.67
-4.7514	172.51
-4.5237	171.34
-4.3118	168.85
-4.2291	165.38
-4.3236	161.49
-4.5933	157.72
-5.0074	154.36
-5.5333	151.55
-6.1618	149.24
-6.9247	147.46
-7.8804	146.6
-9.0567	147.67
-10.346	152.19
-11.391	161.27
-11.688	173.48
-11.101	-175.11
-9.9756	-167.2
-8.6788	-162.99
-7.422	-161.84
-6.3304	-163.05
-5.4825	-165.83
-4.9127	-169.33
-4.6093	-172.71
-4.5013	-175.15
-4.4379	-176.15
-4.2257	-176.07
-3.7768	-176.34
-3.2196	-178.29
-2.7853	177.94
-2.629	173.28
-2.7766	168.93
-3.153	165.92
-3.6095	164.9
-3.947	165.82
-4.0055	167.64
-3.7943	168.85
-3.482	168.62
-3.2379	167.16
-3.1353	165.24
-3.1612	163.55
-3.25	162.52
-3.3118	162.24
-3.2682	162.34
-3.1027	162.16
-2.8762	161.18
-2.6845	159.31
-2.5963	156.9
-2.6231	154.41
-2.7356	152.13
-2.8998	150.1
-3.106	148.22
-3.3733	146.44
-3.7268	144.93
-4.1703	143.98
-4.6785	143.92
-5.2064	144.96
-5.6966	147.24
-6.0705	150.81
-6.2233	155.42
-6.0645	160.28
-5.6065	164.17
-4.9929	166.21
-4.4073	166.42
-3.9703	165.47
-3.7098	164.26
-3.574	163.52
-3.4521	163.61
-3.2157	164.25
-2.8062	164.51
-2.3032	163.44
-1.8695	160.76
-1.6421	156.99
-1.6924	152.97
-2.0266	149.72
-2.561	148.37
-3.075	149.71
-3.2557	153.13
-2.9643	156.29
-2.4096	157.13
-1.9104	155.49
-1.6504	152.46
-1.6674	149.21
-1.9221	146.7
-2.3302	145.68
-2.7402	146.72
-2.9175	149.67
-2.6718	152.98
-2.0711	154.46
-1.4034	153.04
-0.95088	149.22
-0.87245	144.34
-1.1934	139.99
-1.8003	137.68
-2.4349	138.3
-2.7669	141.24
-2.6467	144.18
-2.2761	145.04
-1.9768	143.7
-1.9223	141.41
-2.1122	139.43
-2.4568	138.62
-2.8297	139.38
-3.0834	141.64
-3.0835	144.71
-2.7954	147.32
-2.3381	148.33
-1.9138	147.53
-1.6893	145.64
-1.7107	143.93
-1.8715	143.63
-1.9285	145.1
-1.6541	147.09
-1.0892	147.37
-0.5402	144.95
-0.28879	140.72
-0.42782	136.34
-0.89788	133.3
-1.5359	132.73
-2.0736	135.11
-2.1849	139.43
-1.7694	142.92
-1.1099	143.46
-0.56891	141.14
-0.34946	137.26
-0.50894	133.29
-1.0075	130.65
-1.6935	130.67
-2.26	134.1
-2.2989	139.83
-1.6676	144.4
-0.72947	145.03
0.036127	141.92
0.38404	136.93
0.29119	131.94
-0.14907	128.37
-0.76059	127.26
-1.276	128.89
-1.4269	132.14
-1.1673	134.75
-0.72066	135.22
-0.3614	133.63
-0.24832	131.14
-0.38043	129.14
-0.6053	128.65
-0.69917	129.52
-0.54355	130.41
-0.24256	129.9
-0.027163	127.75
-0.068236	124.95
-0.37809	123.01
-0.79351	123.25
-0.9968	125.9
-0.70389	129.05
-0.0073976	129.76
0.68726	126.94
1.064	121.63
0.99531	115.4
0.44689	109.75
-0.54688	106.5
-1.7317	107.97
-2.4413	114.75
-2.1269	122.22
-1.2015	125.08
-0.35667	123.21
0.089529	118.73
0.082268	113.66
-0.31698	109.48
-0.98935	107.28
-1.7515	107.94
-2.3037	111.68
-2.3272	116.87
-1.8372	120.51
-1.1793	121.18
-0.63688	119.5
-0.32337	116.53
-0.26347	113.23
-0.42598	110.48
-0.70687	108.96
-0.94805	108.71
-1.048	108.92
-1.0549	108.69
-1.102	107.9
-1.2579	107.3
-1.4447	107.73
-1.4874	109.15
-1.2862	110.42
-0.92427	110.35
-0.57698	108.59
-0.38541	105.54
-0.42903	101.9
-0.75096	98.48
-1.3448	96.421
-2.0633	97.154
-2.5225	101.09
-2.3896	105.86
-1.81	108.36
-1.1543	107.8
-0.66777	104.92
-0.47092	100.73
-0.63004	96.296
-1.145	93.036
-1.8571	92.558
-2.3749	95.354
-2.3675	99.13
-1.9848	100.96
-1.585	100.34
-1.3649	98.272
-1.3692	95.82
-1.5711	93.84
-1.8865	92.984
-2.1785	93.455
-2.3207	94.734
-2.2891	95.861
-2.1737	96.133
-2.1056	95.525
-2.1786	94.655
-2.3876	94.496
-2.5963	95.78
-2.5962	98.213
-2.2881	100.33
-1.7916	100.69
-1.3309	98.969
-1.0764	95.8
-1.1083	92.161
-1.4388	89.149
-1.9918	88.033
-2.5198	89.814
-2.6491	93.706
-2.2677	96.873
-1.6492	97.349
-1.103	95.209
-0.80546	91.378
-0.84133	86.96
-1.2245	83.234
-1.8576	81.608
-2.4769	83.029
-2.7192	86.768
-2.4403	90.16
-1.8765	91.019
-1.3572	89.2
-1.0764	85.703
-1.1026	81.688
-1.4296	78.284
-1.9691	76.605
-2.5145	77.382
-2.7904	80.13
-2.6625	82.967
-2.2659	84.106
-1.851	83.096
-1.6058	80.586
-1.6037	77.633
-1.8173	75.234
-2.149	74.069
-2.4611	74.35
-2.6164	75.687
-2.5447	77.132
-2.2962	77.664
-2.0073	76.781
-1.824	74.674
-1.8408	72.078
-2.0619	69.991
-2.3838	69.249
-2.6282	69.988
-2.6463	71.374
-2.4375	72.026
-2.1684	71.067
-2.0442	68.765
-2.1687	66.268
-2.4951	64.842
-2.859	65.263
-3.0333	67.416
-2.8386	69.966
-2.312	70.894
-1.7185	69.027
-1.3517	64.774
-1.3884	59.522
-1.8709	55.077
-2.6721	53.454
-3.3989	56.036
-3.4982	61.326
-2.862	64.784
-1.9982	63.619
-1.4359	58.503
-1.4547	51.621
-2.1286	45.478
-3.3692	42.789
-4.7997	46.603
-5.4533	57.744
-4.5184	68.759
-2.7838	71.79
-1.2873	67.545
-0.43504	59.219
-0.347	49.375
-1.0732	40.301
-2.6159	35.024
-4.637	38.442
-5.6384	53.51
-4.262	67.511
-2.0861	69.634
-0.4316	63.364
0.36764	53.098
0.23872	42.015
-0.77269	32.986
-2.5075	29.208
-4.4049	34.769
-4.9688	49.392
-3.5684	60.196
-1.7515	60.62
-0.51038	54.396
-0.089191	45.445
-0.5312	36.851
