Tektronix:  IConnect
Version 6.1.0

File Created: April 06, 2017 at 12:35PM
Created By: Tek_Local_Admin

Format: Waveform
Type: Frequency Domain

== Begin Header ==

Type: Scattering

Data Type: dBMagnitude/Phase
Samples: 501
Step Size: 40meg
First Step: 0
Reference Impedance: 50

== End Header ==

Data:
-0.27	0
-0.28582	-10.685
-0.33379	-21.338
-0.41366	-31.906
-0.52038	-42.33
-0.64301	-52.57
-0.76885	-62.639
-0.88985	-72.596
-1.0063	-82.509
-1.1251	-92.417
-1.2546	-102.31
-1.3991	-112.13
-1.5578	-121.83
-1.7244	-131.34
-1.8885	-140.64
-2.0374	-149.74
-2.1605	-158.7
-2.2546	-167.59
-2.3266	-176.5
-2.388	174.56
-2.4442	165.66
-2.4866	156.87
-2.4966	148.17
-2.4612	139.43
-2.3887	130.45
-2.308	121.14
-2.2511	111.57
-2.2331	101.94
-2.2411	92.454
-2.2425	83.184
-2.2079	74
-2.1346	64.655
-2.0509	54.969
-1.9968	44.955
-2	34.808
-2.0613	24.793
-2.1548	15.115
-2.2399	5.8208
-2.28	-3.2386
-2.2631	-12.34
-2.2082	-21.735
-2.1523	-31.523
-2.1302	-41.632
-2.1603	-51.88
-2.2403	-62.063
-2.3501	-72.043
-2.4618	-81.804
-2.556	-91.463
-2.6333	-101.18
-2.7134	-111.05
-2.8206	-121.04
-2.969	-131
-3.1552	-140.73
-3.359	-150.11
-3.5497	-159.09
-3.699	-167.78
-3.796	-176.37
-3.8536	174.95
-3.8981	166.14
-3.9498	157.27
-4.0104	148.49
-4.0622	139.91
-4.078	131.49
-4.0384	123.06
-3.949	114.38
-3.8398	105.28
-3.7465	95.772
-3.6928	85.98
-3.6876	76.051
-3.7316	66.118
-3.8205	56.32
-3.9391	46.807
-4.0537	37.674
-4.1214	28.821
-4.1224	19.927
-4.0841	10.673
-4.0617	0.99195
-4.1009	-8.8964
-4.2143	-18.606
-4.3687	-27.742
-4.4853	-36.131
-4.4742	-44.102
-4.3147	-52.426
-4.0899	-61.708
-3.9143	-71.916
-3.8534	-82.567
-3.9078	-93.107
-4.0286	-103.15
-4.14	-112.62
-4.1821	-121.88
-4.1634	-131.49
-4.1617	-141.74
-4.2628	-152.41
-4.5035	-162.88
-4.847	-172.5
-5.1808	179.14
-5.3582	171.75
-5.3129	164.25
-5.1407	155.61
-5.0147	145.74
-5.0415	135.37
-5.2129	125.42
-5.4363	116.43
-5.5884	108.4
-5.5788	100.75
-5.4107	92.617
-5.18	83.462
-4.9973	73.39
-4.9132	62.881
-4.9164	52.333
-4.9802	41.881
-5.0961	31.526
-5.2745	21.342
-5.5198	11.58
-5.7967	2.599
-6.014	-5.465
-6.074	-13.079
-5.9723	-21.145
-5.8143	-30.237
-5.7242	-40.218
-5.7702	-50.48
-5.9447	-60.274
-6.1589	-69.024
-6.2681	-76.755
-6.1729	-84.327
-5.9203	-92.818
-5.6594	-102.62
-5.5169	-113.3
-5.5296	-124.06
-5.6391	-134.2
-5.7277	-143.57
-5.7013	-152.73
-5.5781	-162.54
-5.4794	-173.44
-5.536	174.91
-5.8111	163.34
-6.2745	152.86
-6.7917	144.25
-7.1403	137.52
-7.14	131.38
-6.8366	123.98
-6.4631	114.46
-6.2345	103.28
-6.2524	91.456
-6.5157	80.108
-6.9318	70.183
-7.3197	62.14
-7.4696	55.434
-7.2929	48.544
-6.9036	40.045
-6.5099	29.547
-6.2735	17.552
-6.2668	4.8774
-6.493	-7.6989
-6.9139	-19.548
-7.4609	-30.192
-8.0349	-39.367
-8.5195	-47.198
-8.8301	-54.278
-8.9631	-61.385
-8.9869	-69.018
-8.9823	-77.204
-8.9914	-85.658
-9.0057	-94.095
-8.9908	-102.46
-8.9269	-110.96
-8.8326	-119.81
-8.7505	-129.05
-8.7087	-138.44
-8.6922	-147.68
-8.6478	-156.68
-8.5235	-165.73
-8.3174	-175.36
-8.0966	173.98
-7.9646	162.23
-8.0129	149.76
-8.297	137.2
-8.8323	125.36
-9.5721	115.25
-10.347	107.88
-10.835	103.28
-10.764	99.4
-10.238	93.382
-9.6261	84.165
-9.2246	72.605
-9.1487	60.227
-9.3609	48.461
-9.7121	38.251
-9.9918	29.685
-10.033	21.783
-9.8405	13.025
-9.5861	2.4876
-9.4674	-9.6699
-9.6038	-22.623
-10.027	-35.362
-10.691	-46.903
-11.471	-56.463
-12.167	-63.875
-12.596	-70.042
-12.745	-76.525
-12.789	-84.279
-12.933	-92.969
-13.264	-101.36
-13.693	-108.09
-13.959	-112.56
-13.771	-115.97
-13.095	-120.92
-12.23	-129.14
-11.518	-140.33
-11.14	-153.08
-11.115	-165.92
-11.361	-177.66
-11.72	172.48
-11.961	164.56
-11.869	157.36
-11.45	148.78
-10.962	137.5
-10.701	123.8
-10.852	109.01
-11.469	94.818
-12.478	83.024
-13.634	75.376
-14.425	72.424
-14.331	71.082
-13.508	66.33
-12.589	56.746
-11.978	44.041
-11.764	30.248
-11.885	16.794
-12.219	4.5066
-12.615	-6.3323
-12.929	-16.088
-13.096	-25.677
-13.177	-36.025
-13.311	-47.469
-13.639	-59.588
-14.225	-71.422
-15.03	-81.873
-15.908	-90.125
-16.636	-96.126
-17.025	-101
-17.085	-106.56
-17.037	-113.78
-17.11	-122.08
-17.377	-130.03
-17.716	-136.17
-17.822	-140.07
-17.397	-143.47
-16.503	-149.29
-15.519	-158.86
-14.776	-171.41
-14.436	174.54
-14.527	160.58
-14.966	148.24
-15.522	138.65
-15.848	131.63
-15.701	124.96
-15.221	115.92
-14.79	103.66
-14.717	89.191
-15.136	74.288
-16.047	60.832
-17.317	50.903
-18.532	46.463
-18.938	46.466
-18.24	44.806
-17.096	37.351
-16.14	25.018
-15.618	9.9857
-15.577	-5.9309
-15.979	-21.278
-16.714	-34.893
-17.61	-46.01
-18.443	-54.498
-18.993	-61.217
-19.186	-67.902
-19.158	-76.074
-19.132	-86.126
-19.286	-97.575
-19.729	-109.58
-20.522	-121.01
-21.648	-130.29
-22.897	-135.54
-23.749	-136.06
-23.67	-135.04
-22.829	-137.54
-21.863	-144.98
-21.19	-155.64
-20.907	-167.26
-20.916	-178.13
-21.002	172.56
-20.932	164.4
-20.611	155.9
-20.158	145.74
-19.786	133.64
-19.657	120.26
-19.846	106.64
-20.335	94.019
-20.978	83.515
-21.492	75.304
-21.641	67.768
-21.501	58.51
-21.405	46.513
-21.685	32.698
-22.508	19.278
-23.79	9.1408
-25.058	4.8432
-25.444	5.2434
-24.627	3.3802
-23.37	-5.4269
-22.421	-20.115
-22.094	-38.053
-22.467	-56.968
-23.527	-75.03
-25.234	-90.45
-27.474	-100.86
-29.812	-103.07
-31.11	-96.694
-30.56	-90.974
-29.171	-93.99
-28.029	-104.46
-27.555	-118.88
-27.852	-134.17
-28.879	-147.63
-30.474	-156.3
-32.062	-156.52
-32.257	-149.63
-30.713	-147.58
-28.858	-155.12
-27.485	-168.6
-26.721	175.26
-26.524	158.43
-26.811	142.3
-27.433	127.97
-28.17	115.92
-28.812	105.56
-29.289	95.558
-29.708	84.99
-30.214	73.991
-30.849	63.483
-31.488	54.207
-31.936	45.767
-32.128	36.585
-32.244	25.164
-32.601	11.305
-33.498	-3.8756
-35.182	-18.36
-37.943	-28.435
-41.771	-23.411
-42.439	7.327
-38.526	17.421
-35.5	7.0555
-33.837	-9.7472
-33.248	-28.261
-33.554	-46.48
-34.681	-62.916
-36.593	-75.399
-39.013	-79.974
-40.667	-73.951
-40.308	-68.288
-39.369	-73.065
-39.125	-84.148
-39.705	-96.08
-40.794	-105.53
-41.879	-111.43
-42.532	-115.43
-42.77	-119.91
-42.812	-124.41
-42.436	-126.77
-41.046	-128.79
-38.821	-136.05
-36.592	-149.64
-34.85	-167.05
-33.731	174.16
-33.233	155.74
-33.284	139.06
-33.72	125.14
-34.274	114
-34.758	103.94
-35.328	92.437
-36.537	78.343
-39.354	63.43
-45.985	62.073
-46.529	136.26
-39.517	134.82
-36.718	114.27
-36.091	90.77
-37.14	66.451
-40.246	42.371
-47.943	26.397
-50.163	125.66
-41.33	110.2
-38.205	76.982
-37.343	39.492
-37.818	-0.30061
-39.171	-41.439
-41.289	-83.17
-44.68	-125.64
-51.63	-175.63
-56.321	25.921
-46.593	-37.132
-43.254	-77.052
-42.746	-113.48
-44.688	-149.07
-50.67	171.2
-59.228	9.5856
-46.835	-53.113
-42.729	-90.193
-41.204	-125.43
-41.157	-159.94
-42.097	166.83
-43.66	136.73
-45.373	113.21
-46.289	98.458
-45.621	85.854
-44.334	66.889
-43.787	41.839
-44.764	13.789
-48.176	-14.806
-58.17	-39.054
-55.828	97.746
-48.076	71.534
-45.567	42.116
-45.441	12.133
-47.238	-16.708
-50.958	-38.804
-54.758	-35.636
-51.845	-29.912
-47.533	-55.089
-44.374	-88.593
-42.397	-121.46
-41.698	-151.08
-42.52	-175.43
-45.269	172.17
-47.969	-166.42
-43.846	-143.76
-39.659	-150.23
-37.078	-163.68
-35.458	-176.95
-34.206	171.65
-32.906	160.93
-31.545	148.64
-30.372	134.04
-29.598	117.89
-29.339	101.5
-29.641	86.7
-30.368	76.156
-30.915	71.895
-30.491	70.448
-29.321	65.294
-28.192	55.51
-27.459	43.582
-27.095	31.764
-26.879	21.102
-26.564	10.928
-26.115	-0.63234
-25.756	-14.788
-25.744	-31.098
-26.185	-48.172
-27.013	-64.571
-28.03	-79.284
-28.939	-92.195
-29.491	-104.68
-29.748	-118.77
-30.083	-134.71
-30.839	-149.99
-32.028	-159.94
-32.799	-159.77
-31.611	-155.28
-29.128	-159.41
-26.906	-171.97
-25.462	171.64
-24.858	154.9
-24.959	140.86
-25.292	132.03
-25.083	127.27
-24.105	121.06
-22.904	110.21
-21.973	95.607
-21.497	79.28
-21.466	63.346
-21.661	49.699
-21.661	38.762
-21.146	28.265
-20.265	15.3
-19.418	-0.79366
-18.892	-18.955
-18.823	-37.759
-19.277	-55.687
-20.223	-70.713
-21.333	-80.417
-21.823	-85.197
-21.305	-91.25
-20.405	-103.18
-19.742	-120.45
-19.553	-141.37
-19.9	-164.53
-20.756	171.44
-22.006	147.91
-23.458	126.23
-24.872	107.53
