Tektronix:  IConnect
Version 6.1.0

File Created: April 06, 2017 at 12:33PM
Created By: Tek_Local_Admin

Format: Waveform
Type: Frequency Domain

== Begin Header ==

Type: Scattering

Data Type: dBMagnitude/Phase
Samples: 501
Step Size: 40meg
First Step: 0
Reference Impedance: 50

== End Header ==

Data:
-0.4019	0
-0.4323	-10.508
-0.51918	-20.912
-0.65731	-31.093
-0.83292	-40.932
-1.0224	-50.354
-1.1971	-59.367
-1.3324	-68.081
-1.4165	-76.671
-1.4539	-85.311
-1.4631	-94.115
-1.4632	-103.1
-1.467	-112.2
-1.4757	-121.33
-1.4793	-130.44
-1.4633	-139.56
-1.4209	-148.82
-1.3628	-158.35
-1.3176	-168.26
-1.3209	-178.46
-1.3944	171.25
-1.5313	161.16
-1.6985	151.43
-1.8544	142.03
-1.979	132.72
-2.0929	123.24
-2.2435	113.57
-2.4707	103.96
-2.7722	94.864
-3.0881	86.661
-3.3188	79.305
-3.3939	72.231
-3.332	64.676
-3.2307	56.237
-3.1937	47.095
-3.2718	37.822
-3.4434	29.049
-3.6227	21.158
-3.7001	13.992
-3.6149	6.8524
-3.4077	-1.0049
-3.1795	-9.8574
-3.0174	-19.474
-2.9573	-29.386
-2.983	-39.155
-3.0452	-48.55
-3.0897	-57.633
-3.0927	-66.685
-3.0702	-75.979
-3.0611	-85.578
-3.0942	-95.328
-3.171	-105.01
-3.2714	-114.48
-3.3712	-123.74
-3.4572	-132.87
-3.5303	-141.95
-3.5972	-151
-3.6559	-159.99
-3.6959	-168.96
-3.7124	-178.01
-3.7164	172.71
-3.7353	163.15
-3.8	153.39
-3.9255	143.65
-4.0962	134.18
-4.2688	125.09
-4.4022	116.17
-4.4906	107.06
-4.5761	97.476
-4.727	87.382
-5.0086	77.083
-5.4525	67.207
-6.0121	58.566
-6.5327	51.633
-6.8277	45.834
-6.8559	39.733
-6.7597	32.332
-6.7173	23.694
-6.8369	14.562
-7.1335	5.935
-7.5119	-1.2467
-7.7672	-6.72
-7.7145	-11.558
-7.3893	-17.442
-7.0004	-25.044
-6.712	-33.827
-6.5661	-42.907
-6.5126	-51.604
-6.4521	-59.696
-6.2952	-67.548
-6.0335	-75.871
-5.7472	-85.121
-5.5337	-95.198
-5.4479	-105.63
-5.484	-115.88
-5.5861	-125.55
-5.6745	-134.61
-5.6872	-143.41
-5.6278	-152.48
-5.5603	-162.11
-5.5508	-172.14
-5.6216	177.79
-5.752	168.01
-5.9024	158.63
-6.0342	149.58
-6.1297	140.69
-6.1908	131.78
-6.2281	122.77
-6.2497	113.59
-6.2651	104.15
-6.2958	94.366
-6.3784	84.212
-6.5594	73.837
-6.8681	63.6
-7.3004	54.054
-7.7829	45.755
-8.1721	38.779
-8.3487	32.342
-8.3346	25.296
-8.2684	17.081
-8.288	7.9371
-8.4697	-1.4165
-8.8	-10.099
-9.1701	-17.431
-9.4091	-23.474
-9.4098	-29.23
-9.2321	-35.837
-9.0315	-43.603
-8.9201	-51.995
-8.9019	-60.213
-8.885	-67.783
-8.7515	-74.978
-8.4692	-82.664
-8.1304	-91.54
-7.8735	-101.59
-7.7892	-112.17
-7.8838	-122.45
-8.0805	-131.73
-8.2392	-139.77
-8.2179	-147.12
-7.9814	-154.95
-7.64	-164.18
-7.3582	-174.94
-7.2589	173.3
-7.3991	161.35
-7.7698	150.13
-8.2822	140.5
-8.7559	132.9
-8.9778	126.77
-8.8594	120.53
-8.5237	112.73
-8.1852	103.03
-7.9993	92.043
-8.0193	80.628
-8.2224	69.531
-8.5427	59.231
-8.8939	49.898
-9.1929	41.352
-9.396	33.124
-9.5174	24.699
-9.6149	15.817
-9.7493	6.5504
-9.9531	-2.8019
-10.218	-11.907
-10.505	-20.597
-10.774	-28.969
-11.021	-37.281
-11.288	-45.662
-11.626	-53.882
-12.04	-61.367
-12.452	-67.499
-12.696	-72.18
-12.615	-76.339
-12.211	-81.588
-11.674	-88.979
-11.224	-98.374
-10.999	-108.89
-11.033	-119.43
-11.265	-128.98
-11.549	-136.8
-11.663	-142.99
-11.441	-148.89
-10.935	-156.29
-10.376	-166.1
-9.9921	-177.94
-9.9082	169.22
-10.152	156.52
-10.662	145
-11.317	135.44
-11.922	128.18
-12.258	122.57
-12.238	116.96
-11.991	109.91
-11.734	101.15
-11.61	91.369
-11.653	81.477
-11.804	72.234
-11.941	63.915
-11.947	56.091
-11.797	47.831
-11.59	38.41
-11.47	27.82
-11.539	16.71
-11.811	6.0097
-12.201	-3.4753
-12.548	-11.515
-12.695	-18.814
-12.627	-26.741
-12.504	-36.264
-12.537	-47.235
-12.863	-58.66
-13.517	-69.181
-14.41	-77.262
-15.26	-81.575
-15.574	-82.714
-15.097	-84.517
-14.206	-90.445
-13.44	-100.44
-13.079	-112.58
-13.163	-124.8
-13.587	-135.42
-14.124	-143.34
-14.448	-148.51
-14.278	-152.72
-13.654	-158.74
-12.906	-167.98
-12.346	-179.91
-12.125	166.77
-12.268	153.35
-12.73	140.88
-13.408	130.29
-14.117	122.22
-14.601	116.34
-14.694	110.91
-14.512	103.97
-14.337	94.98
-14.383	84.889
-14.697	75.195
-15.162	67.252
-15.52	61.585
-15.497	57.071
-15.072	51.375
-14.51	43.116
-14.086	32.741
-13.916	21.512
-13.974	10.639
-14.135	0.88738
-14.221	-7.7579
-14.113	-16.271
-13.858	-25.968
-13.648	-37.456
-13.687	-50.279
-14.091	-63.25
-14.867	-74.825
-15.876	-83.327
-16.754	-87.664
-16.993	-89.251
-16.471	-92.398
-15.669	-99.911
-15.091	-111.1
-14.961	-123.93
-15.294	-136.44
-15.996	-146.95
-16.833	-153.89
-17.342	-156.87
-17.068	-158.69
-16.142	-163.79
-15.115	-173.7
-14.393	172.77
-14.151	157.39
-14.419	141.79
-15.164	127.41
-16.297	115.76
-17.573	108.55
-18.445	106.28
-18.388	105.32
-17.657	100.52
-16.921	90.909
-16.578	78.319
-16.764	64.925
-17.476	52.861
-18.551	44.427
-19.524	41.352
-19.701	41.996
-18.919	40.792
-17.776	34.438
-16.831	23.865
-16.298	11.27
-16.162	-1.4552
-16.281	-13.161
-16.481	-23.521
-16.622	-32.956
-16.656	-42.325
-16.648	-52.344
-16.72	-63.124
-16.969	-74.165
-17.43	-84.549
-18.024	-93.197
-18.531	-99.548
-18.681	-104.46
-18.398	-110.18
-17.908	-118.54
-17.551	-129.67
-17.578	-142.28
-18.071	-154.34
-18.918	-163.7
-19.778	-168.68
-20.083	-169.68
-19.441	-170.7
-18.17	-176.32
-16.897	172.66
-16.007	157.89
-15.634	141.31
-15.793	124.51
-16.444	108.86
-17.495	95.799
-18.719	86.765
-19.674	82.271
-19.872	79.933
-19.343	75.132
-18.654	65.716
-18.284	52.938
-18.408	39.137
-18.978	26.374
-19.819	16.176
-20.637	9.3238
-21.076	5.0742
-20.966	1.0176
-20.468	-5.0642
-19.859	-13.725
-19.323	-24.466
-18.941	-36.601
-18.737	-49.58
-18.714	-63.058
-18.889	-76.854
-19.303	-90.739
-20.022	-104.13
-21.068	-115.84
-22.315	-124.31
-23.402	-128.66
-23.887	-130.45
-23.7	-133.4
-23.227	-139.82
-22.882	-149.37
-22.855	-160.49
-23.156	-171.82
-23.746	177.42
-24.619	167.94
-25.762	161.22
-26.867	159.79
-27.038	163.38
-25.824	164.32
-24.125	157.19
-22.761	143.68
-22.008	126.71
-21.924	108.54
-22.497	91.01
-23.683	76.128
-25.279	66.816
-26.479	65.569
-26.185	66.756
-24.982	60.989
-24.025	48.79
-23.646	33.971
-23.81	18.957
-24.413	5.2934
-25.273	-5.7427
-26.059	-13.694
-26.437	-20.274
-26.45	-28.511
-26.482	-39.73
-26.883	-53.006
-27.81	-66.33
-29.218	-77.258
-30.762	-83.602
-31.811	-85.718
-32.037	-88.05
-31.867	-94.321
-31.845	-104.27
-32.238	-115.96
-33.111	-127.15
-34.318	-135.47
-35.355	-139.56
-35.665	-142.53
-35.519	-149.35
-35.586	-160.53
-36.229	-174.18
-37.652	171.47
-40.171	158.61
-44.386	154.01
-48.751	-177.05
-45.223	-147.37
-41.796	-152.96
-40.322	-166.6
-40.074	-179.45
-40.335	172.14
-40.226	168.64
-39.116	165.44
-37.327	157.17
-35.555	143.37
-34.163	126.39
-33.226	108.55
-32.687	91.553
-32.437	76.525
-32.308	64.226
-32.049	54.628
-31.431	46.155
-30.497	36.317
-29.543	23.692
-28.868	8.5094
-28.662	-8.2359
-29.03	-25.275
-30.02	-41.021
-31.586	-53.04
-33.273	-57.707
-33.735	-55.582
-32.49	-58.664
-31.022	-72.458
-30.181	-92.803
-30.052	-116.09
-30.58	-140.43
-31.802	-164.46
-33.888	174
-37.024	160.53
-39.971	167.39
-38.627	-178.51
-35.807	174.33
-34.107	156.36
-33.569	135.24
-34.017	113.82
-35.333	93.405
-37.456	74.639
-40.374	57.555
-44.191	40.533
-49.422	16.112
-54.795	-47.877
-50.109	-114.38
-45.513	-139.54
-42.472	-154.13
-39.988	-165.42
-37.602	-177.41
-35.354	167.3
-33.457	148.26
-32.045	126.24
-31.181	102.31
-30.894	77.702
-31.182	53.868
-32.023	32.714
-33.245	16.926
-34.204	8.6699
-33.99	4.0681
-32.867	-4.9509
-31.832	-19.908
-31.414	-38.316
-31.835	-57.685
-33.213	-75.145
-35.434	-85.902
-37.314	-84.962
-37.085	-81.467
-35.884	-89.023
-35.237	-105.49
-35.555	-126.28
-37.009	-148
-39.824	-165.61
-43.628	-166.68
-43.838	-146.45
-40.497	-146.84
-38.034	-162.47
-36.686	178.8
-36.098	161.41
-35.918	147.07
-35.802	135.65
-35.567	125.34
-35.357	114.16
-35.47	101.87
-36.104	89.662
-37.295	79.225
-38.895	72.336
-40.487	69.822
-41.59	68.78
-42.455	63.567
-44.046	51.429
-47.595	30.453
-54.953	-23.412
-50.672	-126.48
-44.444	-159.41
-40.985	179.38
-38.858	159.71
-37.636	138.71
-37.294	114.81
-37.99	86.972
-39.934	53.806
-43.037	11.14
-45.716	-47.435
-45.482	-106.8
-44.676	-149.3
-45.381	179.72
-48.42	159.28
-53.764	171.37
-50.839	-153.06
-46.999	-164.6
