Tektronix:  IConnect
Version 6.1.0

File Created: April 06, 2017 at 12:35PM
Created By: Tek_Local_Admin

Format: Waveform
Type: Time Domain

== Begin Header ==

Type: Impedance

Samples: 16000
Step Size: 313f
First Step: 0
Reference Impedance: 50

== End Header ==

Data:
50
50.029
50.057
50.076
50.058
50.005
49.963
49.907
49.904
49.921
49.969
50.023
50.055
50.092
50.081
50.055
50.005
49.982
49.978
49.974
49.965
49.957
49.959
49.971
49.986
50.006
50.016
50.03
50.038
50.043
50.036
50.019
50.007
49.99
49.99
49.997
50.014
50.018
50.001
49.989
49.986
49.988
49.983
49.977
49.979
49.984
49.986
49.993
50.012
50.033
50.042
50.03
50.01
49.998
50.005
50.027
50.055
50.067
50.085
50.094
50.11
50.094
50.071
50.045
50.042
50.059
50.089
50.116
50.126
50.123
50.114
50.104
50.085
50.075
50.07
50.073
50.073
50.073
50.074
50.073
50.079
50.084
50.093
50.089
50.066
50.03
50.001
49.993
50.01
50.026
50.057
50.082
50.118
50.135
50.148
50.15
50.138
50.113
50.081
50.068
50.075
50.088
50.087
50.068
50.051
50.04
50.036
50.031
50.035
50.042
50.06
50.072
50.093
50.104
50.103
50.089
50.073
50.061
50.042
50.02
50.014
50.034
50.061
50.074
50.067
50.053
50.046
50.047
50.058
50.069
50.077
50.086
50.086
50.082
50.071
50.069
50.077
50.086
50.092
50.084
50.072
50.049
50.042
50.049
50.073
50.086
50.082
50.068
50.051
50.037
50.027
50.028
50.044
50.066
50.076
50.071
50.06
50.06
50.076
50.094
50.103
50.104
50.099
50.094
50.089
50.092
50.095
50.096
50.079
50.064
50.046
50.041
50.042
50.045
50.045
50.037
50.038
50.045
50.054
50.046
50.028
50.004
49.999
50.011
50.041
50.057
50.068
50.079
50.115
50.145
50.148
50.107
50.052
50.014
50.015
50.044
50.058
50.056
50.019
50.011
50.016
50.048
50.075
50.078
50.071
50.032
50.007
49.985
50.006
50.038
50.074
50.085
50.086
50.067
50.051
50.035
50.042
50.053
50.07
50.084
50.096
50.108
50.109
50.113
50.119
50.132
50.142
50.152
50.15
50.126
50.087
50.071
50.087
50.102
50.089
50.063
50.048
50.042
50.033
50.034
50.038
50.039
50.027
50.007
50.002
50.002
50.022
50.044
50.07
50.086
50.087
50.089
50.083
50.079
50.054
50.032
50.013
50.024
50.056
50.091
50.099
50.064
50.031
50.012
50.021
50.029
50.033
50.035
50.018
49.992
49.969
49.976
50.012
50.047
50.073
50.089
50.095
50.096
50.087
50.087
50.084
50.083
50.068
50.067
50.074
50.101
50.101
50.085
50.062
50.066
50.084
50.098
50.108
50.117
50.129
50.127
50.116
50.097
50.08
50.07
50.081
50.111
50.136
50.139
50.124
50.11
50.101
50.093
50.082
50.083
50.098
50.118
50.144
50.155
50.163
50.137
50.108
50.073
50.06
50.055
50.059
50.078
50.098
50.124
50.138
50.144
50.15
50.149
50.163
50.158
50.16
50.146
50.14
50.132
50.138
50.139
50.123
50.081
50.052
50.048
50.064
50.072
50.077
50.105
50.15
50.185
50.188
50.165
50.137
50.105
50.084
50.074
50.085
50.101
50.121
50.124
50.118
50.101
50.092
50.094
50.091
50.082
50.057
50.044
50.048
50.063
50.08
50.083
50.086
50.086
50.1
50.11
50.104
50.082
50.058
50.054
50.06
50.09
50.117
50.139
50.121
50.094
50.076
50.089
50.121
50.14
50.155
50.146
50.126
50.1
50.083
50.083
50.078
50.081
50.091
50.109
50.129
50.15
50.159
50.149
50.128
50.115
50.11
50.108
50.11
50.113
50.115
50.107
50.09
50.082
50.088
50.107
50.114
50.117
50.119
50.137
50.149
50.152
50.146
50.156
50.171
50.174
50.145
50.107
50.093
50.1
50.12
50.123
50.134
50.141
50.156
50.158
50.161
50.159
50.149
50.134
50.12
50.126
50.136
50.159
50.171
50.18
50.169
50.165
50.168
50.178
50.177
50.162
50.132
50.088
50.045
50.032
50.054
50.084
50.1
50.093
50.074
50.055
50.057
50.08
50.119
50.14
50.16
50.16
50.159
50.136
50.114
50.095
50.093
50.103
50.116
50.135
50.153
50.174
50.189
50.182
50.155
50.111
50.078
50.058
50.057
50.067
50.088
50.11
50.129
50.131
50.128
50.112
50.096
50.074
50.07
50.068
50.086
50.098
50.111
50.101
50.091
50.09
50.106
50.129
50.137
50.14
50.129
50.117
50.091
50.068
50.054
50.069
50.097
50.118
50.117
50.106
50.1
50.102
50.109
50.12
50.132
50.146
50.152
50.16
50.152
50.141
50.124
50.14
50.161
50.175
50.154
50.123
50.104
50.106
50.121
50.124
50.107
50.074
50.055
50.064
50.093
50.126
50.153
50.168
50.176
50.174
50.17
50.146
50.125
50.104
50.112
50.11
50.101
50.08
50.069
50.071
50.075
50.086
50.093
50.089
50.066
50.047
50.047
50.071
50.099
50.128
50.151
50.154
50.144
50.124
50.108
50.1
50.097
50.117
50.135
50.148
50.138
50.122
50.113
50.123
50.136
50.146
50.143
50.14
50.14
50.136
50.141
50.124
50.105
50.074
50.069
50.069
50.072
50.071
50.067
50.078
50.093
50.133
50.17
50.196
50.184
50.146
50.103
50.081
50.088
50.102
50.105
50.088
50.076
50.076
50.091
50.103
50.1
50.076
50.047
50.039
50.047
50.054
50.037
50.015
49.996
50
50.019
50.054
50.08
50.093
50.079
50.06
50.043
50.035
50.031
50.033
50.054
50.091
50.123
50.13
50.12
50.116
50.106
50.096
50.076
50.082
50.106
50.141
50.15
50.132
50.095
50.063
50.037
50.026
50.034
50.061
50.088
50.091
50.08
50.075
50.08
50.091
50.098
50.106
50.102
50.096
50.089
50.091
50.095
50.102
50.113
50.122
50.12
50.112
50.101
50.082
50.062
50.05
50.053
50.058
50.082
50.111
50.132
50.115
50.088
50.072
50.093
50.12
50.136
50.126
50.116
50.111
50.122
50.116
50.106
50.079
50.074
50.067
50.077
50.072
50.067
50.055
50.06
50.081
50.111
50.131
50.133
50.118
50.098
50.075
50.06
50.045
50.062
50.079
50.109
50.114
50.126
50.118
50.113
50.102
50.099
50.101
50.105
50.119
50.118
50.104
50.083
50.084
50.1
50.114
50.113
50.11
50.11
50.108
50.098
50.08
50.081
50.099
50.125
50.125
50.109
50.089
50.074
50.067
50.07
50.1
50.128
50.157
50.17
50.19
50.191
50.19
50.167
50.153
50.122
50.108
50.099
50.106
50.104
50.094
50.064
50.048
50.059
50.121
50.175
50.188
50.139
50.093
50.071
50.08
50.09
50.11
50.142
50.183
50.208
50.205
50.181
50.154
50.135
50.128
50.128
50.12
50.122
50.139
50.181
50.194
50.179
50.137
50.106
50.079
50.065
50.063
50.081
50.092
50.101
50.09
50.082
50.082
50.121
50.183
50.231
50.229
50.189
50.149
50.115
50.1
50.096
50.129
50.153
50.164
50.144
50.14
50.136
50.131
50.108
50.077
50.05
50.03
50.046
50.076
50.11
50.118
50.114
50.105
50.1
50.108
50.119
50.136
50.134
50.128
50.119
50.124
50.126
50.119
50.098
50.1
50.114
50.134
50.127
50.119
50.129
50.158
50.169
50.15
50.127
50.117
50.134
50.143
50.157
50.146
50.136
50.12
50.122
50.134
50.15
50.169
50.176
50.162
50.143
50.13
50.13
50.123
50.1
50.076
50.045
50.044
50.066
50.116
50.131
50.111
50.067
50.051
50.053
50.074
50.088
50.102
50.104
50.112
50.13
50.143
50.137
50.115
50.125
50.156
50.177
50.148
50.102
50.074
50.078
50.088
50.091
50.078
50.072
50.076
50.096
50.108
50.107
50.086
50.055
50.049
50.071
50.115
50.13
50.12
50.101
50.096
50.097
50.101
50.104
50.101
50.085
50.064
50.057
50.061
50.07
50.068
50.066
50.062
50.068
50.086
50.112
50.138
50.146
50.143
50.124
50.115
50.119
50.134
50.148
50.139
50.128
50.112
50.111
50.112
50.12
50.134
50.146
50.156
50.143
50.108
50.06
50.035
50.031
50.044
50.059
50.089
50.107
50.109
50.102
50.109
50.13
50.152
50.179
50.186
50.176
50.155
50.151
50.155
50.152
50.134
50.119
50.125
50.152
50.18
50.171
50.147
50.129
50.139
50.157
50.161
50.16
50.157
50.166
50.172
50.163
50.144
50.141
50.165
50.184
50.195
50.195
50.222
50.235
50.242
50.227
50.228
50.238
50.245
50.24
50.22
50.216
50.211
50.208
50.191
50.19
50.191
50.203
50.2
50.207
50.21
50.215
50.209
50.189
50.168
50.147
50.137
50.131
50.138
50.164
50.204
50.218
50.205
50.159
50.122
50.098
50.104
50.129
50.138
50.136
50.108
50.102
50.088
50.09
50.081
50.082
50.06
50.03
50.005
50.012
50.032
50.045
50.047
50.043
50.041
50.028
50.01
49.975
49.939
49.913
49.908
49.929
49.943
49.948
49.929
49.92
49.921
49.923
49.91
49.893
49.885
49.905
49.931
49.958
49.973
49.983
49.995
49.994
49.991
49.976
49.961
49.933
49.913
49.902
49.914
49.933
49.955
49.956
49.921
49.879
49.851
49.862
49.881
49.905
49.921
49.939
49.94
49.946
49.931
49.927
49.923
49.937
49.944
49.943
49.945
49.969
50.01
50.041
50.054
50.048
50.049
50.05
50.05
50.056
50.068
50.1
50.132
50.165
50.182
50.19
50.19
50.202
50.218
50.242
50.257
50.266
50.281
50.299
50.319
50.328
50.33
50.332
50.314
50.312
50.316
50.344
50.348
50.343
50.339
50.347
50.362
50.363
50.364
50.357
50.363
50.383
50.407
50.436
50.441
50.448
50.428
50.408
50.367
50.343
50.337
50.368
50.398
50.414
50.412
50.401
50.395
50.367
50.342
50.314
50.318
50.327
50.338
50.339
50.336
50.329
50.32
50.312
50.301
50.293
50.275
50.261
50.265
50.284
50.306
50.295
50.284
50.277
50.291
50.299
50.293
50.267
50.245
50.241
50.256
50.264
50.279
50.296
50.318
50.34
50.366
50.393
50.397
50.386
50.38
50.382
50.372
50.335
50.295
50.287
50.306
50.333
50.326
50.313
50.305
50.321
50.316
50.3
50.275
50.267
50.254
50.247
50.247
50.259
50.256
50.245
50.234
50.241
50.262
50.29
50.322
50.338
50.341
50.327
50.306
50.282
50.258
50.254
50.259
50.273
50.278
50.273
50.263
50.256
50.259
50.261
50.257
50.241
50.219
50.203
50.199
50.22
50.253
50.284
50.288
50.267
50.244
50.241
50.249
50.248
50.225
50.196
50.178
50.176
50.181
50.184
50.184
50.167
50.135
50.106
50.097
50.11
50.104
50.095
50.072
50.062
50.057
50.051
50.051
50.047
50.053
50.049
50.044
50.045
50.056
50.079
50.103
50.135
50.14
50.126
50.086
50.067
50.07
50.095
50.114
50.119
50.115
50.117
50.118
50.12
50.128
50.148
50.178
50.187
50.179
50.155
50.157
50.168
50.189
50.188
50.19
50.193
50.212
50.231
50.246
50.252
50.244
50.227
50.212
50.215
50.232
50.244
50.227
50.196
50.18
50.215
50.279
50.347
50.372
50.363
50.327
50.299
50.294
50.298
50.305
50.305
50.312
50.339
50.362
50.394
50.408
50.431
50.434
50.413
50.367
50.311
50.275
50.257
50.262
50.281
50.307
50.327
50.329
50.301
50.264
50.239
50.246
50.272
50.286
50.3
50.307
50.323
50.333
50.338
50.329
50.314
50.292
50.284
50.272
50.269
50.264
50.261
50.258
50.24
50.224
50.21
50.207
50.2
50.2
50.202
50.225
50.24
50.256
50.252
50.247
50.241
50.246
50.246
50.244
50.246
50.255
50.264
50.267
50.257
50.241
50.217
50.205
50.21
50.226
50.241
50.227
50.189
50.132
50.101
50.104
50.154
50.207
50.244
50.251
50.253
50.251
50.235
50.19
50.155
50.134
50.151
50.167
50.193
50.214
50.243
50.248
50.227
50.186
50.156
50.147
50.164
50.179
50.188
50.176
50.179
50.189
50.196
50.181
50.166
50.168
50.194
50.204
50.207
50.195
50.172
50.129
50.091
50.079
50.089
50.099
50.093
50.076
50.038
50.032
50.042
50.078
50.081
50.068
50.057
50.062
50.073
50.077
50.073
50.075
50.082
50.086
50.091
50.083
50.091
50.097
50.117
50.119
50.118
50.109
50.117
50.121
50.135
50.135
50.15
50.142
50.135
50.122
50.13
50.146
50.159
50.168
50.182
50.191
50.204
50.195
50.189
50.176
50.176
50.19
50.208
50.217
50.203
50.186
50.194
50.21
50.222
50.204
50.17
50.139
50.112
50.104
50.087
50.088
50.089
50.105
50.113
50.118
50.098
50.071
50.043
50.029
50.009
49.982
49.95
49.924
49.897
49.885
49.885
49.898
49.901
49.895
49.877
49.857
49.827
49.793
49.75
49.726
49.709
49.692
49.646
49.584
49.526
49.487
49.469
49.461
49.465
49.473
49.477
49.467
49.438
49.401
49.364
49.33
49.306
49.277
49.244
49.209
49.172
49.151
49.117
49.103
49.081
49.087
49.078
49.064
49.027
48.99
48.952
48.917
48.891
48.893
48.901
48.899
48.842
48.769
48.704
48.676
48.664
48.649
48.631
48.613
48.584
48.545
48.491
48.451
48.427
48.425
48.413
48.377
48.324
48.3
48.288
48.291
48.278
48.274
48.259
48.24
48.221
48.214
48.207
48.206
48.217
48.253
48.277
48.275
48.254
48.229
48.219
48.208
48.212
48.237
48.271
48.313
48.345
48.379
48.387
48.376
48.367
48.381
48.406
48.426
48.447
48.479
48.504
48.538
48.567
48.62
48.652
48.68
48.69
48.703
48.707
48.719
48.742
48.785
48.831
48.889
48.937
48.985
49.02
49.058
49.108
49.164
49.228
49.264
49.294
49.319
49.369
49.431
49.497
49.557
49.599
49.617
49.626
49.642
49.663
49.7
49.744
49.813
49.864
49.899
49.912
49.95
50.004
50.057
50.083
50.111
50.155
50.229
50.29
50.342
50.364
50.384
50.415
50.476
50.562
50.642
50.696
50.718
50.718
50.731
50.757
50.806
50.844
50.881
50.912
50.955
51.021
51.107
51.176
51.219
51.221
51.237
51.262
51.321
51.387
51.443
51.49
51.524
51.569
51.59
51.604
51.611
51.645
51.694
51.736
51.77
51.785
51.807
51.815
51.831
51.85
51.885
51.918
51.945
51.942
51.92
51.873
51.838
51.82
51.849
51.899
51.931
51.928
51.89
51.869
51.852
51.861
51.861
51.854
51.826
51.783
51.747
51.705
51.684
51.656
51.659
51.639
51.617
51.566
51.521
51.468
51.397
51.309
51.217
51.155
51.095
51.028
50.938
50.854
50.8
50.745
50.68
50.572
50.457
50.346
50.24
50.13
50.005
49.886
49.787
49.697
49.602
49.468
49.32
49.165
49.02
48.871
48.723
48.586
48.452
48.318
48.17
48.019
47.851
47.673
47.482
47.308
47.137
46.958
46.753
46.548
46.376
46.214
46.05
45.845
45.62
45.378
45.143
44.927
44.694
44.445
44.188
43.969
43.764
43.528
43.245
42.953
42.687
42.444
42.202
41.962
41.71
41.435
41.122
40.798
40.482
40.189
39.892
39.586
39.262
38.959
38.652
38.353
38.022
37.689
37.329
37.007
36.726
36.466
36.158
35.778
35.41
35.042
34.715
34.385
34.101
33.798
33.475
33.119
32.797
32.49
32.198
31.875
31.562
31.239
30.923
30.59
30.288
29.984
29.676
29.315
28.956
28.621
28.333
28.056
27.773
27.458
27.112
26.77
26.467
26.244
26.031
25.827
25.564
25.275
24.951
24.638
24.353
24.102
23.88
23.666
23.445
23.217
22.995
22.78
22.573
22.372
22.196
22.039
21.876
21.691
21.48
21.297
21.129
20.989
20.828
20.68
20.556
20.463
20.364
20.233
20.098
19.964
19.857
19.746
19.639
19.526
19.418
19.34
19.278
19.229
19.162
19.084
19.003
18.934
18.883
18.844
18.816
18.793
18.767
18.74
18.71
18.686
18.666
18.653
18.658
18.666
18.689
18.693
18.701
18.692
18.706
18.742
18.792
18.819
18.817
18.811
18.844
18.915
19.017
19.104
19.18
19.247
19.321
19.399
19.475
19.564
19.658
19.757
19.834
19.91
19.997
20.109
20.238
20.387
20.568
20.753
20.921
21.061
21.202
21.353
21.493
21.638
21.789
21.97
22.168
22.339
22.514
22.686
22.944
23.213
23.461
23.638
23.771
23.941
24.139
24.374
24.606
24.89
25.225
25.557
25.792
25.975
26.149
26.369
26.57
26.779
27.021
27.342
27.706
28.087
28.395
28.678
28.889
29.097
29.273
29.469
29.718
30.034
30.388
30.697
30.936
31.165
31.479
31.862
32.225
32.526
32.789
33.064
33.334
33.586
33.863
34.159
34.49
34.786
35.059
35.295
35.505
35.726
35.94
36.172
36.362
36.57
36.794
37.075
37.371
37.677
37.978
38.235
38.472
38.662
38.855
38.992
39.131
39.276
39.476
39.688
39.92
40.151
40.372
40.551
40.694
40.84
40.994
41.118
41.215
41.275
41.385
41.542
41.741
41.904
42.007
42.094
42.203
42.34
42.468
42.554
42.617
42.656
42.712
42.761
42.797
42.82
42.849
42.891
42.942
42.996
43.035
43.054
43.043
43.036
43.024
43.024
43.024
43.032
43.032
43.008
42.95
42.876
42.809
42.762
42.728
42.689
42.632
42.556
42.461
42.366
42.269
42.187
42.098
42.004
41.888
41.772
41.665
41.57
41.472
41.359
41.231
41.091
40.948
40.811
40.685
40.562
40.435
40.308
40.183
40.056
39.918
39.774
39.628
39.486
39.344
39.21
39.085
38.967
38.842
38.704
38.544
38.384
38.238
38.132
38.04
37.954
37.854
37.75
37.629
37.495
37.369
37.261
37.184
37.103
37.021
36.93
36.831
36.726
36.611
36.51
36.428
36.367
36.314
36.258
36.21
36.168
36.128
36.068
35.999
35.921
35.859
35.817
35.791
35.773
35.75
35.738
35.725
35.712
35.695
35.684
35.676
35.663
35.642
35.617
35.596
35.58
35.575
35.573
35.564
35.556
35.563
35.596
35.628
35.647
35.645
35.647
35.654
35.671
35.674
35.687
35.701
35.734
35.757
35.771
35.775
35.777
35.803
35.834
35.877
35.894
35.91
35.914
35.932
35.951
35.965
35.967
35.958
35.957
35.967
35.983
36.013
36.042
36.079
36.111
36.152
36.186
36.21
36.208
36.203
36.19
36.195
36.193
36.195
36.19
36.198
36.224
36.258
36.284
36.29
36.294
36.298
36.308
36.319
36.328
36.341
36.354
36.374
36.393
36.402
36.397
36.392
36.405
36.436
36.466
36.484
36.493
36.51
36.535
36.562
36.589
36.615
36.635
36.645
36.653
36.676
36.708
36.738
36.751
36.747
36.745
36.748
36.763
36.783
36.809
36.829
36.848
36.863
36.888
36.917
36.948
36.971
36.988
36.998
37.004
37.012
37.017
37.025
37.035
37.059
37.093
37.129
37.156
37.169
37.174
37.179
37.185
37.208
37.248
37.301
37.325
37.325
37.315
37.326
37.342
37.348
37.342
37.344
37.358
37.371
37.372
37.365
37.361
37.362
37.37
37.385
37.394
37.398
37.398
37.414
37.446
37.469
37.487
37.481
37.48
37.464
37.465
37.472
37.488
37.501
37.522
37.552
37.573
37.579
37.577
37.591
37.619
37.648
37.669
37.684
37.705
37.725
37.745
37.755
37.781
37.814
37.862
37.905
37.946
37.981
38.004
38.023
38.04
38.067
38.091
38.113
38.12
38.141
38.166
38.212
38.249
38.283
38.302
38.331
38.369
38.415
38.454
38.495
38.526
38.56
38.585
38.626
38.681
38.737
38.776
38.797
38.823
38.849
38.884
38.922
38.973
39.034
39.1
39.168
39.226
39.276
39.331
39.392
39.461
39.516
39.559
39.586
39.613
39.642
39.675
39.698
39.722
39.754
39.799
39.862
39.929
40.009
40.081
40.142
40.172
40.186
40.199
40.231
40.291
40.35
40.396
40.413
40.432
40.467
40.509
40.547
40.578
40.615
40.665
40.697
40.71
40.709
40.712
40.723
40.72
40.719
40.708
40.724
40.739
40.778
40.812
40.851
40.868
40.86
40.834
40.801
40.782
40.773
40.769
40.742
40.709
40.665
40.636
40.596
40.561
40.522
40.5
40.477
40.447
40.394
40.325
40.252
40.193
40.14
40.082
40.012
39.947
39.899
39.876
39.863
39.834
39.786
39.706
39.621
39.526
39.449
39.376
39.313
39.237
39.146
39.044
38.945
38.868
38.794
38.729
38.648
38.574
38.499
38.432
38.363
38.278
38.182
38.087
38.01
37.957
37.905
37.843
37.771
37.712
37.67
37.62
37.556
37.477
37.411
37.345
37.276
37.201
37.143
37.098
37.07
37.03
36.996
36.942
36.906
36.863
36.836
36.802
36.771
36.735
36.697
36.671
36.653
36.658
36.661
36.65
36.616
36.573
36.546
36.537
36.537
36.538
36.523
36.508
36.49
36.493
36.501
36.51
36.525
36.541
36.558
36.574
36.58
36.593
36.6
36.632
36.667
36.709
36.742
36.773
36.804
36.829
36.876
36.93
36.995
37.036
37.063
37.084
37.119
37.167
37.228
37.285
37.337
37.379
37.429
37.494
37.571
37.651
37.729
37.801
37.862
37.904
37.946
38.011
38.1
38.206
38.29
38.353
38.399
38.439
38.502
38.576
38.68
38.756
38.821
38.868
38.956
39.064
39.183
39.263
39.311
39.351
39.411
39.494
39.571
39.63
39.683
39.757
39.858
39.965
40.056
40.129
40.187
40.243
40.287
40.329
40.376
40.442
40.509
40.565
40.603
40.629
40.661
40.699
40.741
40.777
40.803
40.832
40.862
40.898
40.937
40.973
40.998
40.991
40.99
40.995
41.031
41.053
41.075
41.085
41.092
41.079
41.038
40.984
40.937
40.92
40.916
40.911
40.887
40.86
40.827
40.8
40.764
40.733
40.703
40.686
40.655
40.631
40.582
40.544
40.486
40.447
40.402
40.35
40.277
40.191
40.12
40.06
40.023
39.988
39.954
39.902
39.842
39.781
39.719
39.661
39.596
39.542
39.484
39.421
39.342
39.257
39.18
39.134
39.106
39.085
39.043
38.988
38.926
38.868
38.82
38.768
38.716
38.66
38.62
38.594
38.573
38.533
38.477
38.417
38.375
38.338
38.314
38.288
38.271
38.241
38.212
38.19
38.185
38.185
38.176
38.16
38.148
38.135
38.116
38.086
38.071
38.08
38.115
38.146
38.162
38.163
38.171
38.189
38.21
38.233
38.256
38.279
38.297
38.312
38.332
38.354
38.385
38.419
38.463
38.507
38.561
38.621
38.687
38.726
38.75
38.747
38.776
38.812
38.878
38.926
38.964
38.984
39.011
39.058
39.123
39.195
39.269
39.354
39.424
39.485
39.512
39.544
39.569
39.615
39.673
39.724
39.77
39.804
39.858
39.907
39.964
40.013
40.083
40.152
40.21
40.248
40.284
40.329
40.371
40.42
40.464
40.519
40.545
40.567
40.572
40.608
40.646
40.69
40.709
40.721
40.742
40.782
40.826
40.859
40.881
40.917
40.963
41.023
41.061
41.076
41.069
41.068
41.073
41.077
41.066
41.05
41.039
41.039
41.048
41.055
41.071
41.085
41.099
41.096
41.084
41.077
41.075
41.078
41.064
41.045
41.016
40.994
40.968
40.95
40.934
40.93
40.92
40.9
40.872
40.843
40.833
40.839
40.852
40.846
40.814
40.779
40.747
40.727
40.694
40.658
40.617
40.585
40.581
40.591
40.601
40.583
40.544
40.504
40.466
40.439
40.411
40.395
40.394
40.402
40.411
40.389
40.347
40.304
40.276
40.263
40.242
40.223
40.198
40.182
40.17
40.157
40.142
40.118
40.101
40.087
40.064
40.043
40.012
39.993
39.986
39.995
40.02
40.038
40.048
40.033
40.005
39.982
39.971
39.965
39.962
39.962
39.984
40.006
40.019
40.007
39.994
39.991
40.012
40.037
40.049
40.048
40.038
40.038
40.033
40.039
40.045
40.063
40.078
40.101
40.135
40.166
40.184
40.186
40.191
40.206
40.216
40.232
40.252
40.29
40.32
40.349
40.375
40.412
40.442
40.471
40.506
40.546
40.589
40.624
40.653
40.679
40.699
40.711
40.724
40.754
40.808
40.859
40.879
40.88
40.877
40.897
40.909
40.934
40.968
41.03
41.083
41.124
41.151
41.173
41.194
41.208
41.23
41.248
41.278
41.298
41.334
41.353
41.374
41.369
41.378
41.4
41.435
41.46
41.482
41.511
41.548
41.575
41.582
41.592
41.599
41.622
41.633
41.646
41.657
41.66
41.648
41.611
41.584
41.586
41.621
41.656
41.668
41.652
41.635
41.623
41.609
41.595
41.589
41.608
41.614
41.593
41.546
41.516
41.507
41.505
41.48
41.456
41.44
41.447
41.439
41.418
41.381
41.344
41.302
41.259
41.213
41.176
41.152
41.145
41.145
41.139
41.127
41.094
41.053
41.004
40.978
40.962
40.938
40.904
40.861
40.837
40.807
40.783
40.756
40.733
40.707
40.68
40.651
40.626
40.589
40.551
40.514
40.494
40.489
40.491
40.486
40.481
40.471
40.479
40.473
40.462
40.431
40.408
40.395
40.386
40.381
40.37
40.367
40.362
40.37
40.383
40.399
40.412
40.42
40.431
40.435
40.443
40.454
40.477
40.495
40.502
40.507
40.517
40.539
40.556
40.579
40.598
40.626
40.644
40.668
40.7
40.741
40.787
40.83
40.871
40.892
40.912
40.924
40.943
40.959
40.993
41.039
41.094
41.141
41.18
41.205
41.231
41.252
41.276
41.304
41.335
41.365
41.393
41.431
41.477
41.52
41.561
41.608
41.659
41.713
41.762
41.815
41.852
41.883
41.904
41.938
41.967
41.987
42.002
42.028
42.074
42.122
42.17
42.198
42.222
42.233
42.246
42.252
42.258
42.271
42.29
42.308
42.324
42.328
42.346
42.365
42.398
42.42
42.454
42.478
42.498
42.485
42.469
42.442
42.434
42.434
42.451
42.459
42.458
42.455
42.463
42.476
42.481
42.483
42.478
42.471
42.451
42.427
42.409
42.389
42.37
42.345
42.348
42.359
42.36
42.334
42.299
42.286
42.278
42.265
42.233
42.206
42.186
42.17
42.14
42.093
42.048
42.03
42.037
42.036
42.018
41.99
41.975
41.967
41.951
41.938
41.909
41.873
41.81
41.754
41.704
41.677
41.646
41.627
41.604
41.599
41.596
41.604
41.612
41.61
41.608
41.59
41.575
41.547
41.522
41.501
41.485
41.478
41.473
41.465
41.454
41.436
41.42
41.405
41.403
41.409
41.414
41.413
41.406
41.411
41.411
41.412
41.393
41.386
41.388
41.413
41.423
41.429
41.422
41.434
41.438
41.44
41.432
41.438
41.466
41.501
41.543
41.589
41.621
41.635
41.621
41.614
41.617
41.631
41.653
41.678
41.704
41.722
41.731
41.747
41.764
41.786
41.812
41.843
41.878
41.902
41.916
41.921
41.929
41.953
41.987
42.027
42.051
42.074
42.096
42.131
42.17
42.211
42.241
42.256
42.258
42.264
42.272
42.278
42.279
42.283
42.301
42.322
42.338
42.341
42.335
42.338
42.355
42.394
42.434
42.459
42.449
42.419
42.389
42.392
42.415
42.449
42.461
42.464
42.457
42.461
42.473
42.491
42.507
42.505
42.508
42.511
42.531
42.526
42.504
42.468
42.452
42.447
42.449
42.44
42.433
42.416
42.406
42.395
42.385
42.363
42.333
42.323
42.318
42.326
42.33
42.341
42.343
42.328
42.302
42.271
42.242
42.217
42.207
42.197
42.19
42.166
42.157
42.151
42.17
42.176
42.19
42.177
42.183
42.165
42.156
42.12
42.083
42.042
42.012
42.022
42.051
42.085
42.081
42.044
41.995
41.964
41.975
42.008
42.038
42.041
42.023
42.005
41.99
41.986
41.98
41.977
41.981
41.999
42.024
42.027
42.012
41.995
41.999
42.017
42.021
42.017
42.005
42.005
41.999
41.999
42.004
42.022
42.033
42.032
42.018
42.006
41.999
41.998
41.996
42.001
42.006
42.009
42.007
42.005
42.01
42.016
42.026
42.036
42.052
42.067
42.078
42.083
42.09
42.102
42.121
42.14
42.165
42.172
42.174
42.156
42.15
42.144
42.155
42.161
42.171
42.182
42.205
42.232
42.263
42.286
42.307
42.316
42.313
42.305
42.3
42.322
42.36
42.403
42.442
42.482
42.536
42.576
42.585
42.568
42.549
42.562
42.58
42.607
42.629
42.668
42.704
42.731
42.757
42.778
42.798
42.79
42.78
42.775
42.79
42.806
42.807
42.798
42.807
42.849
42.902
42.951
42.982
43.002
43.008
43.006
42.989
42.975
42.971
43
43.035
43.058
43.055
43.04
43.026
43.014
43.014
43.022
43.039
43.048
43.037
43.029
43.033
43.064
43.081
43.079
43.05
43.027
43.007
42.994
42.973
42.977
43.01
43.054
43.062
43.041
43.015
43.003
42.997
42.991
42.991
42.978
42.961
42.949
42.951
42.941
42.899
42.852
42.824
42.823
42.821
42.813
42.803
42.804
42.817
42.826
42.823
42.809
42.786
42.762
42.728
42.7
42.685
42.681
42.672
42.647
42.626
42.606
42.581
42.544
42.518
42.515
42.52
42.524
42.525
42.526
42.522
42.502
42.485
42.459
42.446
42.438
42.457
42.481
42.492
42.483
42.46
42.438
42.418
42.402
42.392
42.378
42.376
42.382
42.403
42.416
42.416
42.409
42.399
42.407
42.42
42.447
42.445
42.421
42.373
42.345
42.341
42.357
42.367
42.374
42.378
42.393
42.405
42.401
42.385
42.375
42.392
42.424
42.457
42.481
42.491
42.486
42.47
42.449
42.445
42.452
42.477
42.508
42.532
42.552
42.556
42.554
42.556
42.561
42.576
42.575
42.57
42.567
42.58
42.602
42.621
42.626
42.622
42.612
42.625
42.635
42.642
42.625
42.62
42.619
42.623
42.615
42.624
42.639
42.674
42.692
42.702
42.7
42.695
42.698
42.699
42.71
42.72
42.728
42.745
42.763
42.795
42.801
42.801
42.787
42.781
42.772
42.76
42.753
42.75
42.751
42.75
42.749
42.742
42.738
42.738
42.751
42.767
42.775
42.784
42.787
42.79
42.788
42.777
42.766
42.745
42.74
42.744
42.754
42.743
42.719
42.703
42.712
42.729
42.735
42.731
42.727
42.727
42.728
42.716
42.7
42.691
42.712
42.74
42.748
42.721
42.677
42.646
42.64
42.656
42.677
42.679
42.67
42.659
42.661
42.67
42.674
42.671
42.647
42.622
42.594
42.586
42.585
42.585
42.569
42.54
42.519
42.51
42.517
42.518
42.516
42.512
42.513
42.512
42.507
42.488
42.482
42.47
42.467
42.441
42.419
42.4
42.402
42.42
42.439
42.44
42.427
42.413
42.406
42.401
42.388
42.363
42.319
42.276
42.265
42.273
42.271
42.25
42.235
42.234
42.231
42.221
42.214
42.223
42.231
42.232
42.22
42.214
42.19
42.158
42.123
42.121
42.133
42.143
42.133
42.112
42.088
42.061
42.047
42.046
42.05
42.044
42.021
41.992
41.953
41.918
41.9
41.904
41.899
41.881
41.845
41.825
41.81
41.808
41.804
41.8
41.786
41.758
41.711
41.655
41.61
41.587
41.587
41.593
41.598
41.581
41.545
41.493
41.449
41.428
41.425
41.435
41.421
41.381
41.313
41.252
41.211
41.189
41.166
41.14
41.117
41.098
41.073
41.016
40.951
40.889
40.852
40.823
40.784
40.733
40.679
40.627
40.582
40.541
40.499
40.451
40.397
40.351
40.3
40.246
40.181
40.122
40.076
40.031
39.985
39.928
39.873
39.815
39.761
39.722
39.687
39.646
39.576
39.505
39.437
39.377
39.313
39.252
39.192
39.119
39.029
38.954
38.908
38.87
38.816
38.741
38.677
38.621
38.567
38.505
38.418
38.342
38.26
38.194
38.112
38.021
37.94
37.882
37.847
37.79
37.709
37.607
37.526
37.467
37.422
37.376
37.324
37.259
37.176
37.079
36.999
36.934
36.887
36.835
36.779
36.712
36.627
36.538
36.45
36.367
36.286
36.202
36.138
36.067
35.997
35.916
35.846
35.787
35.733
35.679
35.615
35.524
35.422
35.316
35.247
35.196
35.157
35.101
35.029
34.944
34.856
34.778
34.723
34.687
34.645
34.576
34.489
34.411
34.35
34.288
34.214
34.128
34.051
33.978
33.915
33.861
33.819
33.785
33.74
33.677
33.598
33.522
33.459
33.406
33.349
33.283
33.21
33.145
33.082
33.028
32.969
32.916
32.858
32.8
32.734
32.656
32.568
32.48
32.42
32.384
32.352
32.301
32.227
32.151
32.086
32.042
31.994
31.943
31.886
31.845
31.803
31.756
31.684
31.603
31.532
31.486
31.461
31.425
31.384
31.324
31.262
31.186
31.112
31.046
30.996
30.949
30.899
30.851
30.806
30.756
30.699
30.644
30.598
30.561
30.516
30.473
30.416
30.362
30.3
30.247
30.187
30.125
30.056
29.998
29.95
29.911
29.874
29.828
29.788
29.741
29.694
29.628
29.564
29.508
29.465
29.421
29.367
29.312
29.253
29.197
29.146
29.114
29.09
29.051
29.007
28.961
28.937
28.899
28.853
28.784
28.72
28.66
28.615
28.576
28.542
28.502
28.458
28.413
28.379
28.341
28.306
28.266
28.231
28.182
28.119
28.053
28.002
27.971
27.949
27.922
27.88
27.836
27.797
27.768
27.74
27.709
27.675
27.633
27.59
27.547
27.513
27.483
27.454
27.419
27.379
27.33
27.287
27.259
27.237
27.204
27.153
27.107
27.079
27.059
27.038
27.006
26.98
26.954
26.936
26.915
26.877
26.835
26.795
26.758
26.719
26.673
26.649
26.628
26.608
26.576
26.544
26.517
26.487
26.46
26.428
26.397
26.358
26.325
26.295
26.277
26.259
26.244
26.219
26.188
26.151
26.122
26.09
26.059
26.024
26.001
25.978
25.96
25.936
25.906
25.863
25.811
25.763
25.736
25.728
25.718
25.691
25.651
25.619
25.605
25.602
25.597
25.576
25.539
25.492
25.446
25.409
25.384
25.356
25.33
25.306
25.298
25.293
25.278
25.254
25.225
25.198
25.161
25.134
25.12
25.124
25.119
25.101
25.074
25.048
25.034
25.019
25.004
24.978
24.959
24.948
24.938
24.918
24.869
24.822
24.779
24.763
24.747
24.732
24.708
24.691
24.67
24.659
24.64
24.62
24.591
24.569
24.542
24.525
24.508
24.503
24.483
24.455
24.419
24.397
24.38
24.374
24.36
24.35
24.326
24.298
24.267
24.247
24.235
24.224
24.201
24.175
24.142
24.117
24.093
24.079
24.062
24.046
24.026
24.011
23.987
23.97
23.947
23.932
23.909
23.899
23.892
23.888
23.869
23.843
23.804
23.775
23.749
23.738
23.717
23.693
23.662
23.642
23.623
23.61
23.591
23.573
23.554
23.533
23.512
23.494
23.488
23.479
23.463
23.43
23.404
23.385
23.375
23.358
23.333
23.311
23.295
23.278
23.258
23.239
23.233
23.222
23.208
23.184
23.168
23.155
23.141
23.125
23.106
23.093
23.079
23.069
23.06
23.05
23.03
23.004
22.978
22.963
22.952
22.948
22.943
22.938
22.926
22.911
22.885
22.857
22.83
22.815
22.806
22.794
22.778
22.764
22.753
22.748
22.739
22.722
22.693
22.671
22.658
22.657
22.655
22.658
22.653
22.644
22.629
22.617
22.6
22.576
22.549
22.532
22.515
22.504
22.49
22.489
22.487
22.479
22.457
22.43
22.405
22.39
22.38
22.378
22.365
22.35
22.343
22.352
22.361
22.354
22.34
22.328
22.317
22.304
22.281
22.261
22.242
22.24
22.238
22.242
22.235
22.235
22.23
22.226
22.217
22.209
22.199
22.181
22.158
22.136
22.122
22.115
22.106
22.09
22.072
22.069
22.072
22.071
22.06
22.054
22.052
22.049
22.035
22.014
21.996
21.989
21.987
21.983
21.973
21.968
21.97
21.976
21.977
21.969
21.954
21.935
21.92
21.908
21.905
21.902
21.896
21.884
21.87
21.862
21.855
21.85
21.846
21.842
21.838
21.826
21.814
21.807
21.801
21.793
21.771
21.756
21.744
21.739
21.728
21.713
21.698
21.684
21.677
21.679
21.683
21.678
21.659
21.643
21.643
21.647
21.647
21.632
21.624
21.617
21.62
21.611
21.601
21.586
21.581
21.583
21.579
21.562
21.54
21.532
21.538
21.542
21.538
21.524
21.517
21.512
21.517
21.517
21.513
21.495
21.478
21.462
21.46
21.46
21.464
21.462
21.456
21.447
21.438
21.431
21.43
21.43
21.435
21.426
21.415
21.394
21.385
21.382
21.388
21.384
21.376
21.365
21.36
21.356
21.35
21.346
21.34
21.333
21.323
21.315
21.311
21.313
21.32
21.329
21.329
21.313
21.287
21.262
21.26
21.266
21.272
21.261
21.242
21.221
21.204
21.197
21.193
21.199
21.203
21.204
21.195
21.181
21.168
21.151
21.139
21.131
21.129
21.122
21.116
21.119
21.131
21.14
21.129
21.112
21.095
21.088
21.077
21.061
21.036
21.017
21.01
21.018
21.028
21.022
21.001
20.977
20.962
20.956
20.953
20.944
20.934
20.925
20.919
20.916
20.908
20.899
20.879
20.868
20.861
20.858
20.849
20.84
20.83
20.823
20.821
20.823
20.817
20.801
20.783
20.78
20.782
20.783
20.777
20.774
20.767
20.758
20.747
20.744
20.74
20.728
20.704
20.678
20.659
20.652
20.645
20.638
20.629
20.629
20.632
20.637
20.639
20.641
20.637
20.638
20.63
20.613
20.59
20.58
20.587
20.597
20.597
20.589
20.579
20.571
20.567
20.567
20.572
20.575
20.57
20.558
20.545
20.542
20.541
20.542
20.534
20.524
20.511
20.505
20.506
20.506
20.503
20.497
20.497
20.499
20.501
20.495
20.488
20.476
20.469
20.467
20.464
20.457
20.448
20.444
20.442
20.445
20.449
20.452
20.459
20.465
20.475
20.473
20.465
20.453
20.441
20.437
20.432
20.431
20.416
20.4
20.394
20.397
20.401
20.394
20.389
20.388
20.385
20.376
20.36
20.348
20.349
20.354
20.357
20.351
20.345
20.345
20.349
20.348
20.34
20.334
20.336
20.345
20.351
20.351
20.35
20.345
20.339
20.322
20.309
20.295
20.281
20.265
20.254
20.251
20.25
20.249
20.247
20.249
20.253
20.257
20.255
20.252
20.246
20.243
20.239
20.232
20.22
20.212
20.212
20.227
20.245
20.258
20.251
20.234
20.216
20.206
20.196
20.189
20.181
20.178
20.177
20.181
20.185
20.182
20.179
20.173
20.175
20.176
20.173
20.162
20.147
20.141
20.142
20.154
20.165
20.172
20.165
20.148
20.131
20.119
20.113
20.105
20.095
20.089
20.084
20.08
20.074
20.072
20.077
20.087
20.098
20.106
20.109
20.108
20.102
20.094
20.086
20.08
20.075
20.073
20.078
20.078
20.076
20.065
20.062
20.064
20.073
20.082
20.092
20.095
20.088
20.067
20.053
20.051
20.059
20.067
20.07
20.07
20.068
20.066
20.061
20.049
20.031
20.02
20.022
20.027
20.027
20.017
20.012
20.01
20.01
20.012
20.014
20.023
20.032
20.04
20.041
20.031
20.02
20.007
20.002
19.993
19.991
19.991
20.002
20.01
20.015
20.008
19.999
19.986
19.976
19.967
19.97
19.979
19.992
19.999
20
19.995
19.989
19.98
19.978
19.976
19.981
19.986
19.995
20.002
20
19.997
19.989
19.99
19.985
19.979
19.973
19.973
19.977
19.979
19.977
19.967
19.957
19.953
19.963
19.968
19.971
19.965
19.96
19.955
19.951
19.958
19.959
19.961
19.951
19.949
19.952
19.962
19.971
19.977
19.982
19.982
19.978
19.97
19.964
19.962
19.961
19.96
19.959
19.96
19.961
19.955
19.951
19.948
19.953
19.952
19.957
19.956
19.956
19.946
19.94
19.943
19.947
19.942
19.926
19.915
19.912
19.917
19.921
19.923
19.922
19.927
19.938
19.952
19.955
19.95
19.944
19.941
19.941
19.941
19.943
19.942
19.937
19.93
19.92
19.913
19.912
19.911
19.914
19.91
19.909
19.903
19.901
19.893
19.885
19.88
19.885
19.893
19.9
19.9
19.9
19.896
19.891
19.887
19.894
19.906
19.918
19.92
19.917
19.917
19.917
19.912
19.897
19.885
19.878
19.887
19.897
19.908
19.903
19.897
19.889
19.886
19.879
19.877
19.881
19.892
19.893
19.894
19.887
19.893
19.893
19.897
19.897
19.9
19.905
19.912
19.918
19.922
19.918
19.911
19.901
19.902
19.916
19.937
19.954
19.961
19.961
19.953
19.94
19.928
19.93
19.941
19.955
19.967
19.973
19.981
19.987
19.999
20.007
20.011
20.009
20.012
20.015
20.016
20.01
20.012
20.021
20.031
20.032
20.023
20.014
20.012
20.018
20.025
20.03
20.024
20.027
20.035
20.053
20.063
20.065
20.066
20.068
20.067
20.063
20.059
20.064
20.071
20.081
20.087
20.082
20.073
20.065
20.068
20.08
20.095
20.103
20.1
20.095
20.098
20.106
20.109
20.103
20.09
20.08
20.074
20.071
20.07
20.07
20.07
20.075
20.079
20.085
20.083
20.081
20.075
20.069
20.066
20.068
20.069
20.069
20.061
20.065
20.069
20.083
20.082
20.081
20.078
20.084
20.092
20.096
20.098
20.096
20.095
20.086
20.08
20.071
20.071
20.073
20.077
20.074
20.063
20.05
20.043
20.034
20.03
20.022
20.027
20.034
20.047
20.056
20.056
20.053
20.047
20.05
20.052
20.057
20.062
20.071
20.077
20.08
20.078
20.072
20.063
20.055
20.057
20.062
20.065
20.058
20.052
20.053
20.065
20.071
20.072
20.067
20.07
20.069
20.07
20.068
20.07
20.076
20.073
20.064
20.049
20.047
20.055
20.07
20.078
20.077
20.068
20.063
20.062
20.072
20.082
20.088
20.081
20.071
20.065
20.068
20.071
20.077
20.082
20.092
20.1
20.109
20.117
20.118
20.117
20.119
20.126
20.128
20.115
20.1
20.092
20.095
20.1
20.101
20.108
20.119
20.139
20.148
20.146
20.14
20.138
20.147
20.152
20.156
20.154
20.151
20.137
20.127
20.122
20.128
20.134
20.139
20.136
20.131
20.131
20.134
20.148
20.157
20.165
20.167
20.166
20.166
20.163
20.161
20.157
20.153
20.155
20.158
20.162
20.161
20.156
20.153
20.153
20.158
20.16
20.158
20.159
20.159
20.163
20.157
20.155
20.157
20.167
20.178
20.186
20.19
20.189
20.184
20.178
20.175
20.175
20.178
20.171
20.163
20.155
20.155
20.161
20.159
20.162
20.162
20.168
20.169
20.167
20.161
20.155
20.158
20.159
20.162
20.16
20.169
20.176
20.182
20.18
20.168
20.155
20.15
20.162
20.171
20.165
20.159
20.158
20.167
20.172
20.175
20.17
20.167
20.168
20.181
20.182
20.175
20.156
20.15
20.149
20.153
20.156
20.159
20.167
20.174
20.184
20.186
20.192
20.193
20.198
20.195
20.192
20.184
20.179
20.173
20.173
20.179
20.191
20.197
20.197
20.19
20.187
20.186
20.187
20.184
20.182
20.178
20.18
20.182
20.191
20.202
20.21
20.211
20.206
20.195
20.187
20.189
20.204
20.223
20.233
20.232
20.229
20.229
20.237
20.239
20.236
20.227
20.23
20.238
20.245
20.252
20.258
20.267
20.266
20.265
20.257
20.258
20.263
20.278
20.29
20.293
20.284
20.274
20.262
20.257
20.256
20.268
20.284
20.298
20.303
20.305
20.309
20.314
20.313
20.312
20.309
20.308
20.302
20.299
20.302
20.31
20.317
20.321
20.324
20.326
20.326
20.321
20.315
20.31
20.305
20.305
20.308
20.312
20.318
20.32
20.322
20.313
20.309
20.313
20.328
20.336
20.336
20.33
20.324
20.31
20.302
20.298
20.312
20.326
20.342
20.354
20.366
20.37
20.361
20.348
20.339
20.34
20.338
20.333
20.33
20.335
20.34
20.341
20.343
20.347
20.342
20.334
20.323
20.328
20.336
20.344
20.338
20.325
20.312
20.303
20.305
20.311
20.319
20.319
20.319
20.315
20.321
20.324
20.328
20.323
20.317
20.31
20.309
20.304
20.296
20.285
20.284
20.287
20.285
20.279
20.274
20.277
20.283
20.287
20.3
20.306
20.311
20.3
20.293
20.285
20.284
20.279
20.278
20.282
20.296
20.312
20.323
20.323
20.316
20.304
20.295
20.289
20.286
20.284
20.283
20.284
20.281
20.277
20.273
20.267
20.262
20.256
20.264
20.278
20.29
20.292
20.284
20.274
20.267
20.267
20.274
20.277
20.278
20.273
20.273
20.275
20.284
20.292
20.301
20.304
20.305
20.307
20.314
20.322
20.323
20.313
20.298
20.291
20.295
20.31
20.316
20.318
20.305
20.302
20.304
20.322
20.338
20.348
20.343
20.331
20.313
20.302
20.304
20.32
20.338
20.344
20.342
20.332
20.322
20.311
20.311
20.325
20.343
20.354
20.345
20.335
20.332
20.342
20.35
20.351
20.35
20.346
20.348
20.349
20.352
20.352
20.357
20.367
20.377
20.378
20.376
20.372
20.372
20.372
20.375
20.376
20.372
20.372
20.368
20.369
20.36
20.356
20.352
20.351
20.345
20.338
20.342
20.359
20.381
20.393
20.397
20.392
20.388
20.374
20.362
20.354
20.36
20.374
20.382
20.379
20.367
20.363
20.359
20.355
20.346
20.35
20.365
20.383
20.386
20.379
20.372
20.372
20.375
20.372
20.37
20.368
20.375
20.375
20.372
20.366
20.374
20.385
20.399
20.402
20.406
20.409
20.414
20.411
20.4
20.389
20.384
20.382
20.382
20.378
20.375
20.37
20.369
20.369
20.377
20.387
20.396
20.392
20.38
20.372
20.381
20.39
20.392
20.387
20.393
20.408
20.42
20.416
20.401
20.385
20.378
20.378
20.377
20.372
20.373
20.387
20.403
20.409
20.407
20.414
20.43
20.442
20.439
20.427
20.419
20.419
20.419
20.416
20.41
20.409
20.413
20.417
20.416
20.414
20.42
20.43
20.44
20.441
20.436
20.433
20.435
20.442
20.448
20.448
20.448
20.444
20.447
20.446
20.449
20.442
20.439
20.437
20.44
20.445
20.446
20.456
20.46
20.473
20.481
20.493
20.49
20.482
20.473
20.473
20.474
20.472
20.469
20.471
20.475
20.473
20.468
20.464
20.468
20.473
20.473
20.462
20.445
20.433
20.432
20.444
20.459
20.473
20.48
20.482
20.473
20.459
20.442
20.436
20.439
20.448
20.455
20.458
20.454
20.443
20.438
20.437
20.441
20.438
20.432
20.426
20.43
20.44
20.45
20.453
20.452
20.451
20.452
20.452
20.454
20.453
20.45
20.441
20.435
20.431
20.437
20.442
20.448
20.45
20.457
20.455
20.443
20.424
20.417
20.422
20.429
20.427
20.423
20.415
20.409
20.403
20.405
20.403
20.4
20.397
20.412
20.43
20.441
20.437
20.433
20.432
20.433
20.428
20.427
20.428
20.437
20.437
20.437
20.429
20.423
20.413
20.409
20.403
20.402
20.4
20.4
20.396
20.392
20.396
20.411
20.426
20.432
20.426
20.421
20.418
20.418
20.416
20.411
20.41
20.406
20.409
20.409
20.413
20.41
20.406
20.404
20.4
20.392
20.386
20.391
20.403
20.418
20.428
20.44
20.447
20.448
20.438
20.426
20.421
20.418
20.411
20.394
20.381
20.372
20.375
20.379
20.388
20.389
20.395
20.401
20.417
20.432
20.438
20.431
20.412
20.399
20.392
20.399
20.408
20.419
20.425
20.426
20.426
20.421
20.415
20.401
20.386
20.376
20.369
20.364
20.363
20.362
20.366
20.369
20.375
20.38
20.383
20.383
20.376
20.368
20.359
20.362
20.362
20.359
20.339
20.318
20.305
20.31
20.319
20.323
20.319
20.31
20.303
20.295
20.284
20.266
20.249
20.231
20.225
20.226
20.237
20.24
20.236
20.225
20.211
20.199
20.188
20.182
20.177
20.166
20.15
20.13
20.116
20.108
20.107
20.109
20.106
20.094
20.075
20.061
20.056
20.054
20.047
20.034
20.018
19.998
19.978
19.966
19.962
19.956
19.948
19.935
19.919
19.896
19.873
19.859
19.852
19.848
19.843
19.832
19.818
19.8
19.789
19.772
19.755
19.737
19.724
19.711
19.695
19.675
19.655
19.634
19.619
19.602
19.592
19.57
19.545
19.516
19.503
19.498
19.493
19.472
19.453
19.441
19.436
19.42
19.394
19.371
19.351
19.346
19.339
19.335
19.31
19.273
19.223
19.181
19.148
19.133
19.124
19.114
19.09
19.066
19.044
19.031
19.021
19.012
19.004
18.993
18.983
18.968
18.955
18.931
18.906
18.868
18.833
18.797
18.777
18.766
18.766
18.76
18.748
18.727
18.709
18.684
18.659
18.626
18.606
18.591
18.58
18.56
18.531
18.505
18.486
18.475
18.457
18.428
18.393
18.365
18.345
18.323
18.302
18.278
18.259
18.247
18.231
18.218
18.193
18.178
18.162
18.146
18.123
18.098
18.082
18.074
18.067
18.052
18.029
18.007
17.988
17.97
17.946
17.919
17.892
17.87
17.853
17.833
17.816
17.801
17.796
17.793
17.791
17.775
17.759
17.743
17.727
17.701
17.663
17.63
17.601
17.584
17.573
17.57
17.565
17.559
17.549
17.541
17.522
17.505
17.482
17.473
17.461
17.462
17.455
17.45
17.426
17.41
17.393
17.385
17.376
17.366
17.35
17.328
17.313
17.305
17.299
17.287
17.278
17.273
17.266
17.251
17.232
17.217
17.212
17.211
17.215
17.212
17.206
17.19
17.173
17.154
17.143
17.136
17.137
17.138
17.139
17.133
17.122
17.11
17.101
17.101
17.102
17.107
17.107
17.11
17.107
17.105
17.099
17.096
17.091
17.09
17.088
17.09
17.088
17.088
17.085
17.086
17.083
17.082
17.081
17.079
17.075
17.074
17.08
17.09
17.093
17.089
17.084
17.081
17.08
17.077
17.077
17.082
17.092
17.103
17.119
17.133
17.142
17.142
17.14
17.137
17.132
17.125
17.125
17.137
17.159
17.182
17.192
17.195
17.193
17.201
17.207
17.212
17.216
17.219
17.231
17.238
17.256
17.268
17.284
17.291
17.3
17.308
17.317
17.317
17.312
17.309
17.314
17.332
17.357
17.38
17.398
17.408
17.413
17.421
17.432
17.453
17.473
17.489
17.497
17.506
17.516
17.526
17.538
17.545
17.552
17.561
17.579
17.598
17.617
17.634
17.657
17.675
17.691
17.697
17.7
17.706
17.72
17.741
17.759
17.773
17.787
17.8
17.809
17.805
17.808
17.822
17.853
17.875
17.89
17.902
17.922
17.941
17.955
17.96
17.967
17.978
17.997
18.009
18.013
18.015
18.028
18.052
18.074
18.089
18.095
18.104
18.111
18.123
18.128
18.139
18.152
18.177
18.197
18.214
18.226
18.244
18.262
18.278
18.295
18.312
18.324
18.323
18.323
18.332
18.351
18.367
18.381
18.393
18.41
18.424
18.435
18.443
18.453
18.465
18.483
18.502
18.52
18.535
18.545
18.551
18.554
18.559
18.568
18.575
18.582
18.588
18.601
18.617
18.629
18.636
18.643
18.645
18.643
18.641
18.658
18.683
18.701
18.704
18.701
18.71
18.727
18.745
18.748
18.748
18.757
18.772
18.779
18.774
18.772
18.784
18.804
18.817
18.826
18.833
18.84
18.836
18.835
18.838
18.856
18.873
18.887
18.894
18.899
18.903
18.906
18.905
18.901
18.897
18.895
18.894
18.9
18.914
18.935
18.953
18.958
18.951
18.942
18.94
18.943
18.951
18.955
18.961
18.961
18.968
18.977
18.992
19
19.001
19.001
18.994
18.99
18.98
18.984
18.991
19
19.002
19.001
19.003
19.004
19.011
19.021
19.033
19.04
19.037
19.034
19.031
19.036
19.04
19.041
19.04
19.042
19.048
19.054
19.054
19.051
19.045
19.04
19.037
19.038
19.041
19.05
19.058
19.063
19.056
19.052
19.047
19.051
19.054
19.061
19.062
19.065
19.069
19.075
19.076
19.076
19.08
19.09
19.098
19.1
19.095
19.088
19.078
19.073
19.08
19.094
19.108
19.108
19.101
19.091
19.085
19.075
19.071
19.069
19.071
19.074
19.086
19.102
19.115
19.114
19.109
19.111
19.119
19.128
19.124
19.119
19.114
19.116
19.112
19.111
19.114
19.124
19.129
19.131
19.128
19.125
19.118
19.117
19.12
19.131
19.134
19.131
19.12
19.115
19.114
19.121
19.13
19.142
19.146
19.144
19.133
19.125
19.128
19.146
19.166
19.173
19.169
19.166
19.167
19.174
19.179
19.188
19.194
19.195
19.192
19.186
19.182
19.172
19.163
19.16
19.17
19.183
19.19
19.195
19.2
19.207
19.211
19.218
19.224
19.226
19.218
19.205
19.198
19.205
19.212
19.221
19.228
19.242
19.255
19.261
19.257
19.246
19.241
19.241
19.253
19.264
19.272
19.269
19.264
19.267
19.274
19.284
19.289
19.294
19.3
19.309
19.319
19.32
19.315
19.312
19.316
19.334
19.349
19.361
19.356
19.352
19.348
19.359
19.363
19.371
19.374
19.384
19.385
19.384
19.383
19.387
19.391
19.385
19.378
19.375
19.388
19.405
19.422
19.435
19.446
19.457
19.463
19.462
19.458
19.456
19.461
19.46
19.459
19.458
19.47
19.487
19.5
19.504
19.507
19.516
19.527
19.532
19.532
19.536
19.542
19.546
19.54
19.537
19.542
19.558
19.573
19.581
19.584
19.582
19.583
19.581
19.583
19.583
19.588
19.591
19.6
19.604
19.61
19.613
19.623
19.635
19.644
19.646
19.647
19.646
19.648
19.648
19.655
19.66
19.67
19.676
19.684
19.689
19.694
19.699
19.705
19.715
19.721
19.723
19.723
19.725
19.734
19.738
19.735
19.726
19.716
19.717
19.726
19.751
19.772
19.79
19.791
19.79
19.783
19.784
19.793
19.807
19.815
19.813
19.805
19.798
19.795
19.802
19.812
19.822
19.823
19.822
19.822
19.821
19.817
19.816
19.825
19.84
19.85
19.845
19.827
19.809
19.809
19.824
19.837
19.841
19.844
19.848
19.848
19.841
19.845
19.853
19.859
19.85
19.848
19.858
19.872
19.878
19.878
19.888
19.901
19.914
19.919
19.913
19.902
19.89
19.892
19.9
19.906
19.901
19.897
19.896
19.89
19.88
19.868
19.874
19.886
19.904
19.903
19.894
19.883
19.884
19.891
19.903
19.911
19.917
19.914
19.911
19.905
19.904
19.908
19.914
19.924
19.931
19.931
19.921
19.911
19.91
19.913
19.919
19.922
19.926
19.925
19.923
19.921
19.926
19.929
19.93
19.922
19.917
19.92
19.929
19.94
19.945
19.946
19.942
19.936
19.942
19.961
19.984
19.997
19.994
19.985
19.972
19.969
19.965
19.967
19.963
19.963
19.969
19.983
20.002
20.012
20.012
20.003
19.993
19.987
19.987
19.994
20.004
20.01
20.01
20.005
20.002
20.009
20.023
20.039
20.047
20.048
20.045
20.043
20.042
20.038
20.031
20.026
20.024
20.025
20.022
20.009
19.998
19.992
19.997
20.004
20.016
20.032
20.048
20.051
20.042
20.032
20.02
20.015
20.015
20.032
20.053
20.066
20.071
20.073
20.077
20.072
20.065
20.062
20.068
20.07
20.063
20.06
20.061
20.072
20.075
20.076
20.074
20.073
20.082
20.086
20.09
20.086
20.082
20.089
20.098
20.117
20.127
20.131
20.114
20.089
20.068
20.063
20.069
20.073
20.074
20.073
20.076
20.081
20.085
20.09
20.091
20.092
20.087
20.086
20.086
20.095
20.103
20.114
20.115
20.112
20.098
20.081
20.063
20.062
20.075
20.089
20.089
20.081
20.076
20.077
20.072
20.066
20.061
20.059
20.06
20.064
20.078
20.093
20.101
20.091
20.074
20.059
20.057
20.059
20.062
20.061
20.066
20.071
20.071
20.064
20.055
20.054
20.056
20.064
20.07
20.074
20.081
20.089
20.101
20.108
20.111
20.104
20.094
20.085
20.083
20.087
20.088
20.083
20.08
20.087
20.101
20.103
20.1
20.092
20.1
20.107
20.112
20.102
20.087
20.076
20.072
20.075
20.081
20.097
20.112
20.122
20.117
20.103
20.088
20.08
20.084
20.091
20.098
20.102
20.107
20.115
20.122
20.135
20.143
20.148
20.138
20.125
20.11
20.107
20.106
20.104
20.091
20.077
20.077
20.088
20.109
20.116
20.111
20.099
20.092
20.098
20.109
20.109
20.097
20.078
20.069
20.063
20.067
20.073
20.079
20.081
20.077
20.07
20.063
20.056
20.055
20.055
20.063
20.074
20.089
20.098
20.1
20.099
20.09
20.08
20.065
20.061
20.065
20.076
20.085
20.086
20.091
20.098
20.114
20.122
20.123
20.111
20.091
20.072
20.061
20.069
20.078
20.083
20.076
20.072
20.068
20.067
20.061
20.061
20.065
20.076
20.08
20.075
20.062
20.053
20.046
20.032
20.019
20.008
20.005
20.003
20.005
20.015
20.028
20.033
20.027
20.021
20.018
20.023
20.021
20.019
20.007
20.002
20.001
20.012
20.017
20.019
20.01
19.999
19.986
19.985
19.993
20.003
20.007
20.006
20
19.989
19.975
19.968
19.968
19.973
19.973
19.968
19.96
19.953
19.948
19.949
19.949
19.953
19.95
19.954
19.953
19.952
19.946
19.949
19.955
19.959
19.951
19.946
19.94
19.938
19.932
19.932
19.938
19.939
19.934
19.92
19.919
19.924
19.935
19.934
19.93
19.919
19.918
19.922
19.938
19.943
19.935
19.918
19.909
19.915
19.917
19.91
19.889
19.88
19.882
19.895
19.892
19.883
19.87
19.861
19.859
19.862
19.872
19.874
19.872
19.87
19.883
19.898
19.911
19.911
19.91
19.905
19.898
19.892
19.883
19.88
19.873
19.867
19.857
19.856
19.868
19.883
19.892
19.89
19.887
19.883
19.884
19.882
19.886
19.888
19.892
19.888
19.876
19.861
19.849
19.845
19.842
19.847
19.857
19.866
19.866
19.859
19.857
19.86
19.869
19.875
19.874
19.873
19.876
19.885
19.887
19.885
19.876
19.866
19.856
19.844
19.836
19.833
19.84
19.856
19.87
19.878
19.873
19.87
19.875
19.882
19.89
19.891
19.886
19.874
19.864
19.862
19.862
19.862
19.862
19.86
19.856
19.846
19.844
19.849
19.86
19.864
19.866
19.863
19.86
19.854
19.85
19.847
19.842
19.841
19.847
19.856
19.858
19.848
19.836
19.828
19.825
19.825
19.821
19.819
19.816
19.824
19.833
19.84
19.835
19.825
19.813
19.81
19.809
19.81
19.809
19.811
19.81
19.809
19.809
19.817
19.819
19.814
19.799
19.798
19.804
19.817
19.821
19.821
19.819
19.816
19.81
19.805
19.798
19.793
19.789
19.793
19.802
19.81
19.812
19.807
19.801
19.798
19.798
19.801
19.802
19.799
19.796
19.793
19.79
19.782
19.778
19.784
19.798
19.807
19.806
19.802
19.795
19.791
19.789
19.789
19.786
19.771
19.753
19.746
19.758
19.78
19.793
19.796
19.795
19.795
19.793
19.784
19.768
19.761
19.763
19.769
19.771
19.77
19.774
19.782
19.786
19.789
19.793
19.801
19.805
19.8
19.788
19.775
19.769
19.771
19.774
19.777
19.774
19.774
19.775
19.781
19.785
19.785
19.781
19.777
19.77
19.767
19.764
19.77
19.774
19.779
19.78
19.775
19.77
19.768
19.776
19.778
19.777
19.768
19.768
19.774
19.785
19.793
19.8
19.81
19.82
19.827
19.825
19.818
19.808
19.803
19.794
19.787
19.778
19.781
19.787
19.796
19.799
19.799
19.793
19.785
19.781
19.786
19.792
19.791
19.784
19.779
19.778
19.779
19.776
19.778
19.784
19.796
19.799
19.797
19.796
19.798
19.8
19.793
19.784
19.77
19.76
19.749
19.747
19.751
19.763
19.779
19.794
19.801
19.803
19.805
19.802
19.794
19.785
19.779
19.777
19.773
19.776
19.78
19.789
19.792
19.797
19.795
19.786
19.77
19.763
19.771
19.788
19.801
19.802
19.797
19.79
19.791
19.794
19.794
19.787
19.781
19.781
19.788
19.801
19.812
19.819
19.817
19.81
19.804
19.8
19.798
19.796
19.796
19.799
19.806
19.808
19.8
19.784
19.769
19.771
19.774
19.786
19.788
19.801
19.803
19.804
19.792
19.787
19.783
19.791
19.796
19.802
19.805
19.811
19.821
19.83
19.836
19.834
19.825
19.808
19.799
19.795
19.803
19.809
19.818
19.824
19.837
19.848
19.852
19.84
19.821
19.812
19.815
19.826
19.828
19.828
19.825
19.827
19.827
19.824
19.822
19.816
19.811
19.806
19.814
19.825
19.832
19.829
19.82
19.808
19.801
19.799
19.808
19.811
19.815
19.81
19.807
19.803
19.807
19.813
19.824
19.831
19.836
19.828
19.818
19.807
19.807
19.808
19.807
19.801
19.8
19.797
19.8
19.801
19.812
19.82
19.822
19.817
19.809
19.803
19.792
19.781
19.77
19.771
19.774
19.78
19.775
19.769
19.768
19.776
19.786
19.788
19.796
19.81
19.826
19.832
19.821
19.812
19.799
19.796
19.785
19.781
19.779
19.786
19.796
19.801
19.8
19.791
19.781
19.769
19.762
19.763
19.775
19.782
19.78
19.768
19.761
19.76
19.767
19.781
19.793
19.797
19.791
19.781
19.767
19.754
19.744
19.746
19.75
19.754
19.745
19.736
19.728
19.727
19.729
19.733
19.735
19.74
19.745
19.746
19.74
19.73
19.723
19.718
19.719
19.722
19.729
19.73
19.736
19.735
19.74
19.738
19.741
19.733
19.725
19.714
19.715
19.716
19.712
19.698
19.687
19.686
19.699
19.713
19.722
19.727
19.731
19.733
19.723
19.71
19.701
19.708
19.718
19.728
19.729
19.727
19.722
19.715
19.707
19.7
19.699
19.7
19.702
19.705
19.709
19.718
19.723
19.727
19.719
19.712
19.703
19.701
19.701
19.704
19.706
19.709
19.711
19.712
19.713
19.718
19.727
19.736
19.739
19.735
19.723
19.712
19.703
19.698
19.693
19.691
19.701
19.71
19.72
19.721
19.724
19.721
19.723
19.729
19.736
19.737
19.727
19.718
19.712
19.712
19.72
19.728
19.738
19.74
19.733
19.718
19.705
19.706
19.716
19.72
19.719
19.713
19.715
19.713
19.71
19.703
19.705
19.713
19.726
19.723
19.712
19.701
19.7
19.704
19.71
19.714
19.722
19.725
19.728
19.731
19.734
19.731
19.726
19.723
19.728
19.734
19.742
19.744
19.753
19.754
19.756
19.751
19.747
19.744
19.742
19.744
19.74
19.734
19.72
19.716
19.717
19.725
19.734
19.737
19.736
19.731
19.732
19.738
19.744
19.75
19.743
19.732
19.721
19.729
19.748
19.759
19.762
19.751
19.751
19.753
19.769
19.778
19.775
19.761
19.749
19.748
19.748
19.752
19.755
19.764
19.768
19.766
19.757
19.749
19.748
19.751
19.756
19.762
19.769
19.77
19.762
19.751
19.751
19.759
19.771
19.77
19.764
19.762
19.77
19.776
19.771
19.762
19.76
19.762
19.765
19.771
19.785
19.793
19.79
19.781
19.777
19.783
19.791
19.798
19.795
19.789
19.783
19.781
19.778
19.771
19.758
19.749
19.745
19.75
19.759
19.774
19.789
19.793
19.793
19.786
19.78
19.772
19.771
19.777
19.784
19.779
19.766
19.76
19.763
19.774
19.778
19.778
19.779
19.783
19.787
19.783
19.779
19.771
19.769
19.756
19.753
19.758
19.777
19.789
19.793
19.786
19.785
19.79
19.802
19.81
19.806
19.788
19.772
19.765
19.774
19.779
19.777
19.769
19.769
19.779
19.785
19.778
19.764
19.757
19.763
19.779
19.789
19.792
19.788
19.789
19.795
19.808
19.818
19.814
19.796
19.773
19.76
19.757
19.748
19.74
19.73
19.734
19.736
19.744
19.754
19.772
19.783
19.783
19.775
19.764
19.762
19.759
19.763
19.758
19.752
19.744
19.741
19.741
19.746
19.75
19.752
19.748
19.743
19.747
19.756
19.765
19.754
19.735
19.714
19.705
19.702
19.704
19.715
19.732
19.745
19.752
19.751
19.751
19.739
19.728
19.715
19.712
19.704
19.702
19.701
19.708
19.711
19.71
19.71
19.71
19.712
19.716
19.714
19.71
19.7
19.694
19.69
19.681
19.671
19.661
19.664
19.667
19.673
19.671
19.677
19.685
19.695
19.695
19.69
19.683
19.682
19.686
19.689
19.69
19.692
19.695
19.688
19.678
19.666
19.668
19.668
19.661
19.651
19.644
19.646
19.643
19.64
19.633
19.631
19.628
19.627
19.631
19.641
19.649
19.651
19.647
19.639
19.634
19.626
19.623
19.618
19.621
19.625
19.634
19.635
19.636
19.627
19.625
19.617
19.621
19.618
19.616
19.608
19.606
19.608
19.614
19.617
19.613
19.61
19.604
19.607
19.606
19.611
19.611
19.611
19.606
19.604
19.607
19.612
19.609
19.598
19.59
19.591
19.596
19.6
19.595
19.593
19.588
19.585
19.58
19.58
19.583
19.587
19.584
19.579
19.574
19.58
19.584
19.585
19.57
19.558
19.554
19.569
19.582
19.59
19.583
19.578
19.564
19.553
19.537
19.532
19.536
19.552
19.57
19.578
19.576
19.574
19.573
19.566
19.553
19.545
19.548
19.557
19.561
19.552
19.539
19.532
19.533
19.532
19.526
19.518
19.521
19.524
19.534
19.536
19.539
19.537
19.541
19.543
19.549
19.553
19.563
19.568
19.572
19.566
19.56
19.548
19.538
19.52
19.5
19.486
19.487
19.499
19.505
19.504
19.497
19.497
19.503
19.513
19.518
19.52
19.518
19.519
19.518
19.511
19.5
19.495
19.509
19.523
19.528
19.519
19.508
19.504
19.504
19.5
19.49
19.474
19.467
19.464
19.474
19.487
19.506
19.513
19.508
19.492
19.483
19.489
19.502
19.513
19.513
19.51
19.506
19.5
19.494
19.49
19.493
19.494
19.502
19.506
19.518
19.522
19.525
19.515
19.494
19.475
19.473
19.489
19.505
19.505
19.499
19.496
19.506
19.514
19.514
19.503
19.494
19.494
19.502
19.501
19.495
19.483
19.48
19.48
19.486
19.499
19.518
19.532
19.53
19.515
19.498
19.491
19.495
19.504
19.514
19.52
19.518
19.508
19.498
19.499
19.501
19.502
19.497
19.496
19.496
19.503
19.502
19.501
19.49
19.489
19.486
19.489
19.483
19.478
19.469
19.462
19.462
19.465
19.471
19.472
19.475
19.48
19.488
19.488
19.487
19.481
19.483
19.483
19.484
19.487
19.488
19.489
19.485
19.486
19.489
19.49
19.483
19.472
19.464
19.46
19.46
19.461
19.466
19.464
19.462
19.458
19.466
19.473
19.483
19.487
19.493
19.495
19.492
19.49
19.485
19.484
19.474
19.472
19.467
19.472
19.471
19.47
19.462
19.461
19.463
19.467
19.465
19.459
19.459
19.46
19.465
19.462
19.458
19.45
19.444
19.436
19.428
19.424
19.425
19.425
19.425
19.426
19.426
19.429
19.43
19.433
19.429
19.427
19.427
19.433
19.438
19.44
19.436
19.427
19.418
19.415
19.422
19.425
19.425
19.418
19.408
19.401
19.391
19.39
19.39
19.398
19.41
19.419
19.418
19.406
19.396
19.394
19.397
19.402
19.401
19.393
19.374
19.357
19.351
19.356
19.365
19.368
19.366
19.359
19.357
19.358
19.36
19.356
19.357
19.357
19.364
19.368
19.376
19.374
19.375
19.37
19.37
19.366
19.364
19.368
19.373
19.37
19.364
19.355
19.35
19.344
19.34
19.339
19.335
19.331
19.325
19.332
19.341
19.352
19.35
19.344
19.338
19.338
19.342
19.343
19.347
19.345
19.341
19.33
19.323
19.319
19.317
19.314
19.312
19.312
19.308
19.31
19.309
19.315
19.318
19.326
19.339
19.356
19.37
19.369
19.356
19.339
19.329
19.322
19.323
19.325
19.334
19.333
19.333
19.326
19.318
19.307
19.303
19.312
19.324
19.327
19.32
19.312
19.313
19.313
19.308
19.298
19.29
19.297
19.307
19.322
19.334
19.357
19.373
19.378
19.358
19.337
19.328
19.335
19.351
19.357
19.354
19.339
19.332
19.329
19.339
19.341
19.342
19.338
19.338
19.343
19.344
19.348
19.343
19.346
19.345
19.356
19.358
19.356
19.342
19.335
19.335
19.334
19.324
19.309
19.302
19.305
19.319
19.333
19.347
19.346
19.339
19.335
19.348
19.366
19.384
19.392
19.397
19.395
19.388
19.377
19.37
19.367
19.372
19.377
19.385
19.383
19.377
19.367
19.365
19.37
19.381
19.385
19.383
19.38
19.379
19.383
19.385
19.392
19.402
19.411
19.413
19.41
19.413
19.419
19.427
19.427
19.429
19.427
19.427
19.423
19.424
19.432
19.442
19.449
19.452
19.452
19.456
19.458
19.461
19.455
19.446
19.436
19.433
19.431
19.432
19.428
19.434
19.441
19.455
19.464
19.47
19.475
19.483
19.485
19.484
19.479
19.475
19.469
19.466
19.48
19.499
19.519
19.518
19.504
19.483
19.47
19.473
19.482
19.489
19.488
19.486
19.491
19.495
19.501
19.506
19.517
19.528
19.529
19.519
19.504
19.498
19.498
19.508
19.52
19.53
19.534
19.53
19.526
19.522
19.523
19.522
19.525
19.53
19.538
19.537
19.536
19.531
19.539
19.548
19.561
19.562
19.558
19.546
19.538
19.53
19.53
19.528
19.529
19.533
19.545
19.553
19.551
19.542
19.528
19.52
19.519
19.532
19.546
19.544
19.525
19.501
19.499
19.515
19.537
19.545
19.541
19.539
19.544
19.549
19.543
19.535
19.53
19.532
19.535
19.547
19.564
19.581
19.589
19.579
19.565
19.552
19.55
19.541
19.528
19.517
19.517
19.521
19.528
19.539
19.552
19.554
19.556
19.557
19.559
19.55
19.54
19.535
19.536
19.539
19.544
19.554
19.559
19.551
19.541
19.536
19.548
19.564
19.574
19.573
19.569
19.564
19.561
19.554
19.545
19.539
19.543
19.553
19.562
19.558
19.552
19.547
19.555
19.571
19.586
19.591
19.578
19.563
19.556
19.56
19.572
19.585
19.601
19.61
19.614
19.613
19.616
19.617
19.61
19.593
19.575
19.564
19.565
19.573
19.584
19.585
19.585
19.58
19.583
19.582
19.584
19.579
19.578
19.579
19.583
19.587
19.59
19.591
19.594
19.592
19.597
19.598
19.599
19.591
19.588
19.592
19.606
19.619
19.63
19.631
19.621
19.603
19.589
19.591
19.598
19.611
19.619
19.627
19.625
19.62
19.61
19.602
19.598
19.599
19.604
19.607
19.606
19.607
19.612
19.616
19.617
19.616
19.616
19.617
19.617
19.614
19.608
19.601
19.604
19.61
19.619
19.621
19.624
19.625
19.625
19.628
19.632
19.632
19.621
19.611
19.613
19.625
19.643
19.651
19.65
19.637
19.629
19.617
19.606
19.592
19.588
19.591
19.603
19.616
19.627
19.629
19.631
19.638
19.645
19.644
19.631
19.62
19.62
19.628
19.637
19.64
19.641
19.639
19.64
19.643
19.651
19.655
19.659
19.658
19.666
19.663
19.656
19.641
19.636
19.638
19.645
19.646
19.639
19.633
19.632
19.638
19.647
19.655
19.662
19.664
19.663
19.657
19.651
19.651
19.657
19.675
19.681
19.681
19.669
19.669
19.674
19.676
19.671
19.662
19.663
19.664
19.667
19.669
19.671
19.675
19.682
19.692
19.702
19.709
19.712
19.714
19.71
19.702
19.697
19.7
19.712
19.725
19.728
19.72
19.709
19.705
19.712
19.724
19.734
19.735
19.728
19.723
19.722
19.728
19.732
19.735
19.736
19.734
19.737
19.738
19.741
19.737
19.738
19.739
19.744
19.753
19.764
19.763
19.749
19.73
19.73
19.745
19.762
19.766
19.762
19.754
19.749
19.747
19.753
19.758
19.761
19.756
19.757
19.761
19.767
19.769
19.765
19.758
19.756
19.765
19.775
19.78
19.782
19.79
19.789
19.78
19.765
19.758
19.756
19.757
19.761
19.762
19.761
19.757
19.761
19.77
19.78
19.786
19.782
19.777
19.771
19.77
19.769
19.775
19.782
19.789
19.781
19.769
19.751
19.743
19.744
19.753
19.765
19.768
19.772
19.778
19.788
19.791
19.787
19.782
19.777
19.776
19.78
19.784
19.78
19.768
19.765
19.768
19.772
19.764
19.757
19.754
19.763
19.769
19.775
19.773
19.776
19.781
19.786
19.786
19.787
19.79
19.789
19.778
19.756
19.744
19.741
19.749
19.746
19.745
19.747
19.753
19.754
19.755
19.763
19.771
19.771
19.762
19.761
19.774
19.785
19.785
19.775
19.771
19.776
19.776
19.767
19.75
19.738
19.735
19.737
19.742
19.749
19.753
19.751
19.744
19.739
19.742
19.741
19.744
19.75
19.759
19.76
19.755
19.753
19.751
19.745
19.74
19.744
19.755
19.757
19.746
19.737
19.732
19.735
19.731
19.736
19.744
19.755
19.757
19.761
19.762
19.766
19.761
19.754
19.748
19.748
19.755
19.76
19.763
19.76
19.76
19.759
19.762
19.758
19.762
19.764
19.771
19.771
19.767
19.76
19.759
19.767
19.78
19.782
19.78
19.778
19.786
19.785
19.783
19.777
19.782
19.785
19.786
19.782
19.788
19.801
19.816
19.822
19.824
19.825
19.831
19.833
19.838
19.843
19.853
19.853
19.845
19.829
19.821
19.82
19.828
19.832
19.839
19.844
19.858
19.866
19.873
19.868
19.858
19.844
19.841
19.847
19.86
19.873
19.883
19.886
19.879
19.869
19.868
19.878
19.893
19.897
19.891
19.885
19.886
19.894
19.901
19.907
19.905
19.908
19.906
19.914
19.922
19.933
19.93
19.925
19.921
19.931
19.935
19.935
19.93
19.932
19.934
19.934
19.931
19.93
19.929
19.929
19.934
19.94
19.946
19.946
19.946
19.943
19.943
19.941
19.939
19.933
19.924
19.921
19.925
19.939
19.947
19.947
19.938
19.935
19.934
19.933
19.928
19.924
19.92
19.916
19.923
19.938
19.949
19.943
19.931
19.927
19.925
19.919
19.907
19.903
19.903
19.911
19.912
19.912
19.903
19.895
19.888
19.886
19.886
19.887
19.885
19.88
19.877
19.883
19.892
19.902
19.9
19.896
19.891
19.899
19.908
19.909
19.903
19.891
19.879
19.857
19.844
19.838
19.85
19.864
19.876
19.877
19.871
19.857
19.851
19.853
19.863
19.866
19.861
19.853
19.852
19.852
19.851
19.839
19.836
19.829
19.827
19.823
19.828
19.838
19.846
19.846
19.843
19.84
19.84
19.846
19.851
19.855
19.846
19.84
19.828
19.827
19.824
19.824
19.826
19.821
19.821
19.815
19.811
19.796
19.782
19.774
19.779
19.79
19.801
19.808
19.808
19.805
19.796
19.792
19.788
19.788
19.784
19.784
19.782
19.778
19.772
19.769
19.772
19.778
19.786
19.791
19.788
19.775
19.764
19.765
19.772
19.778
19.777
19.779
19.778
19.777
19.773
19.771
19.774
19.775
19.775
19.77
19.766
19.769
19.773
19.779
19.777
19.771
19.76
19.752
19.748
19.754
19.761
19.762
19.747
19.734
19.727
19.737
19.749
19.76
19.763
19.762
19.762
19.765
19.772
19.778
19.785
19.78
19.769
19.753
19.751
19.76
19.773
19.779
19.786
19.796
19.813
19.822
19.822
19.811
19.799
19.789
19.783
19.78
19.781
19.788
19.796
19.802
19.804
19.804
19.809
19.81
19.807
19.796
19.79
19.789
19.793
19.798
19.802
19.808
19.813
19.814
19.809
19.797
19.792
19.798
19.815
19.834
19.839
19.832
19.818
19.811
19.817
19.829
19.835
19.831
19.823
19.82
19.826
19.83
19.836
19.839
19.846
19.849
19.853
19.856
19.858
19.859
19.854
19.85
19.844
19.844
19.85
19.861
19.87
19.866
19.86
19.852
19.853
19.855
19.86
19.866
19.875
19.88
19.876
19.868
19.853
19.844
19.841
19.849
19.862
19.867
19.87
19.87
19.873
19.874
19.871
19.866
19.854
19.847
19.838
19.837
19.836
19.844
19.854
19.865
19.868
19.861
19.85
19.848
19.858
19.873
19.88
19.876
19.868
19.868
19.866
19.862
19.85
19.846
19.85
19.86
19.861
19.851
19.839
19.831
19.827
19.823
19.822
19.827
19.83
19.832
19.832
19.835
19.838
19.837
19.84
19.843
19.851
19.846
19.831
19.81
19.799
19.801
19.807
19.812
19.823
19.84
19.856
19.862
19.866
19.873
19.876
19.872
19.856
19.84
19.823
19.816
19.813
19.823
19.836
19.842
19.833
19.818
19.816
19.824
19.825
19.815
19.8
19.799
19.801
19.813
19.828
19.846
19.853
19.853
19.858
19.866
19.87
19.857
19.846
19.843
19.854
19.865
19.873
19.878
19.883
19.885
19.883
19.878
19.882
19.892
19.907
19.912
19.908
19.906
19.911
19.92
19.924
19.918
19.912
19.91
19.919
19.934
19.946
19.949
19.939
19.928
19.92
19.921
19.923
19.93
19.935
19.938
19.936
19.94
19.947
19.954
19.953
19.953
19.952
19.954
19.96
19.969
19.981
19.982
19.981
19.975
19.973
19.971
19.977
19.989
20
20.006
20.005
20.012
20.021
20.038
20.048
20.047
20.032
20.019
20.01
20.008
20.008
20.008
20.009
20.008
20.005
19.998
19.994
20.001
20.016
20.031
20.03
20.018
19.999
19.985
19.977
19.979
19.991
19.999
19.997
19.989
19.983
19.981
19.974
19.962
19.949
19.937
19.924
19.916
19.918
19.925
19.933
19.928
19.926
19.918
19.919
19.913
19.908
19.904
19.902
19.898
19.889
19.876
19.869
19.871
19.881
19.886
19.875
19.849
19.825
19.82
19.828
19.839
19.835
19.824
19.809
19.798
19.774
19.75
19.733
19.737
19.736
19.724
19.71
19.707
19.711
19.704
19.69
19.677
19.672
19.669
19.666
19.665
19.661
19.66
19.656
19.657
19.651
19.646
19.639
19.633
19.624
19.614
19.607
19.605
19.606
19.6
19.582
19.555
19.529
19.519
19.518
19.516
19.511
19.502
19.502
19.497
19.493
19.489
19.49
19.492
19.488
19.482
19.47
19.458
19.443
19.435
19.43
19.431
19.431
19.433
19.434
19.436
19.43
19.425
19.419
19.42
19.419
19.419
19.415
19.407
19.4
19.399
19.401
19.397
19.389
19.392
19.402
19.412
19.407
19.397
19.388
19.381
19.372
19.362
19.356
19.362
19.374
19.391
19.401
19.406
19.404
19.399
19.397
19.396
19.404
19.413
19.425
19.423
19.419
19.416
19.42
19.424
19.429
19.431
19.434
19.435
19.446
19.46
19.475
19.479
19.48
19.478
19.482
19.485
19.491
19.49
19.493
19.496
19.502
19.507
19.51
19.522
19.536
19.554
19.56
19.564
19.561
19.567
19.574
19.587
19.596
19.607
19.614
19.628
19.642
19.652
19.652
19.654
19.659
19.668
19.674
19.677
19.679
19.68
19.684
19.693
19.701
19.706
19.707
19.707
19.702
19.697
19.697
19.711
19.734
19.747
19.753
19.752
19.762
19.767
19.772
19.77
19.777
19.784
19.794
19.797
19.811
19.82
19.828
19.821
19.812
19.809
19.815
19.83
19.839
19.835
19.816
19.8
19.794
19.795
19.796
19.798
19.809
19.826
19.847
19.856
19.857
19.843
19.83
19.821
19.816
19.811
19.808
19.814
19.827
19.833
19.838
19.832
19.835
19.836
19.85
19.859
19.86
19.846
19.823
19.795
19.771
19.756
19.754
19.76
19.766
19.77
19.771
19.772
19.766
19.757
19.75
19.751
19.758
19.762
19.754
19.739
19.726
19.724
19.728
19.734
19.728
19.718
19.7
19.691
19.684
19.682
19.675
19.671
19.667
19.664
19.659
19.656
19.657
19.656
19.647
19.632
19.619
19.61
19.602
19.594
19.586
19.582
19.581
19.583
19.576
19.567
19.557
19.555
19.552
19.544
19.537
19.531
19.535
19.541
19.558
19.566
19.562
19.541
19.521
19.513
19.517
19.516
19.508
19.491
19.482
19.477
19.483
19.492
19.503
19.511
19.505
19.496
19.479
19.473
19.472
19.484
19.494
19.497
19.487
19.476
19.475
19.487
19.496
19.499
19.498
19.502
19.507
19.505
19.501
19.498
19.507
19.513
19.52
19.518
19.519
19.521
19.535
19.556
19.578
19.59
19.595
19.594
19.594
19.593
19.6
19.609
19.619
19.625
19.626
19.625
19.618
19.613
19.618
19.636
19.656
19.669
19.676
19.684
19.702
19.723
19.742
19.747
19.743
19.742
19.754
19.776
19.793
19.801
19.798
19.798
19.809
19.829
19.853
19.868
19.879
19.886
19.898
19.912
19.923
19.931
19.935
19.944
19.957
19.97
19.98
19.986
19.993
20
20.007
20.02
20.037
20.06
20.08
20.09
20.094
20.095
20.106
20.123
20.136
20.14
20.13
20.126
20.129
20.149
20.171
20.187
20.193
20.197
20.207
20.221
20.231
20.233
20.233
20.236
20.24
20.242
20.246
20.252
20.263
20.272
20.281
20.286
20.292
20.297
20.305
20.307
20.306
20.293
20.284
20.276
20.285
20.294
20.308
20.312
20.311
20.306
20.303
20.3
20.299
20.304
20.307
20.305
20.295
20.287
20.283
20.28
20.269
20.259
20.251
20.25
20.248
20.247
20.253
20.257
20.259
20.249
20.237
20.221
20.206
20.191
20.175
20.164
20.145
20.134
20.123
20.123
20.121
20.116
20.106
20.09
20.074
20.057
20.047
20.041
20.041
20.036
20.028
20.013
20.001
19.987
19.977
19.969
19.954
19.934
19.909
19.884
19.865
19.858
19.865
19.87
19.854
19.822
19.788
19.762
19.742
19.724
19.709
19.696
19.685
19.678
19.665
19.654
19.638
19.636
19.632
19.627
19.613
19.593
19.578
19.564
19.55
19.525
19.499
19.479
19.466
19.458
19.451
19.449
19.44
19.425
19.405
19.389
19.38
19.369
19.359
19.347
19.336
19.326
19.317
19.312
19.301
19.293
19.288
19.29
19.288
19.281
19.267
19.252
19.236
19.222
19.206
19.191
19.179
19.171
19.166
19.158
19.156
19.152
19.147
19.131
19.114
19.106
19.109
19.118
19.12
19.114
19.106
19.097
19.092
19.086
19.084
19.085
19.089
19.093
19.091
19.088
19.089
19.095
19.097
19.095
19.091
19.091
19.086
19.084
19.082
19.083
19.081
19.078
19.078
19.09
19.111
19.128
19.132
19.123
19.112
19.104
19.099
19.099
19.106
19.12
19.132
19.142
19.144
19.153
19.159
19.161
19.154
19.149
19.162
19.183
19.203
19.201
19.186
19.171
19.175
19.194
19.214
19.223
19.226
19.227
19.232
19.241
19.252
19.264
19.275
19.286
19.296
19.305
19.315
19.324
19.336
19.348
19.357
19.36
19.36
19.363
19.373
19.381
19.394
19.402
19.414
19.419
19.424
19.419
19.421
19.431
19.455
19.478
19.489
19.488
19.486
19.493
19.511
19.528
19.533
19.53
19.535
19.549
19.569
19.588
19.601
19.609
19.613
19.619
19.623
19.622
19.617
19.619
19.63
19.643
19.659
19.671
19.685
19.69
19.693
19.696
19.701
19.704
19.705
19.718
19.735
19.755
19.757
19.762
19.773
19.791
19.8
19.801
19.801
19.805
19.816
19.827
19.841
19.848
19.853
19.86
19.87
19.882
19.887
19.894
19.9
19.907
19.91
19.907
19.903
19.903
19.908
19.913
19.913
19.914
19.919
19.927
19.929
19.93
19.933
19.944
19.952
19.951
19.949
19.954
19.961
19.958
19.955
19.96
19.979
19.995
20
19.992
19.973
19.957
19.951
19.961
19.973
19.978
19.973
19.962
19.958
19.962
19.97
19.969
19.957
19.946
19.939
19.943
19.955
19.964
19.969
19.968
19.973
19.972
19.971
19.961
19.958
19.952
19.95
19.946
19.945
19.944
19.937
19.926
19.917
19.917
19.922
19.917
19.902
19.884
19.877
19.881
19.883
19.886
19.886
19.891
19.889
19.88
19.866
19.854
19.846
19.838
19.834
19.83
19.835
19.833
19.824
19.807
19.799
19.792
19.786
19.772
19.763
19.756
19.756
19.754
19.752
19.747
19.734
19.715
19.698
19.691
19.686
19.685
19.682
19.682
19.68
19.67
19.658
19.645
19.637
19.632
19.627
19.622
19.622
19.623
19.619
19.611
19.603
19.604
19.598
19.588
19.573
19.564
19.556
19.551
19.552
19.561
19.565
19.553
19.529
19.51
19.506
19.511
19.521
19.525
19.531
19.529
19.52
19.508
19.498
19.495
19.487
19.472
19.457
19.447
19.443
19.439
19.436
19.439
19.443
19.452
19.453
19.451
19.44
19.428
19.422
19.42
19.421
19.424
19.428
19.432
19.432
19.425
19.419
19.414
19.42
19.43
19.443
19.449
19.445
19.438
19.434
19.43
19.424
19.414
19.407
19.399
19.397
19.404
19.419
19.428
19.423
19.412
19.399
19.392
19.384
19.381
19.39
19.405
19.413
19.406
19.398
19.399
19.402
19.402
19.4
19.403
19.405
19.405
19.408
19.415
19.42
19.414
19.406
19.412
19.432
19.446
19.447
19.434
19.425
19.421
19.427
19.432
19.437
19.435
19.437
19.441
19.453
19.466
19.474
19.482
19.482
19.481
19.474
19.47
19.475
19.48
19.489
19.491
19.497
19.499
19.504
19.51
19.519
19.522
19.527
19.531
19.539
19.541
19.543
19.539
19.538
19.535
19.54
19.547
19.554
19.561
19.565
19.566
19.564
19.565
19.568
19.571
19.576
19.588
19.601
19.61
19.604
19.603
19.602
19.608
19.608
19.61
19.608
19.616
19.624
19.643
19.66
19.669
19.668
19.659
19.663
19.674
19.691
19.7
19.701
19.698
19.694
19.694
19.7
19.709
19.719
19.722
19.722
19.716
19.714
19.715
19.724
19.734
19.746
19.752
19.755
19.751
19.752
19.761
19.78
19.792
19.79
19.778
19.77
19.771
19.777
19.778
19.777
19.773
19.779
19.785
19.791
19.791
19.791
19.789
19.791
19.797
19.804
19.802
19.797
19.788
19.787
19.79
19.794
19.795
19.792
19.799
19.812
19.827
19.824
19.817
19.806
19.803
19.797
19.795
19.796
19.803
19.807
19.807
19.797
19.789
19.782
19.783
19.788
19.798
19.807
19.806
19.798
19.788
19.781
19.776
19.778
19.787
19.793
19.785
19.769
19.76
19.766
19.776
19.779
19.772
19.768
19.765
19.755
19.742
19.733
19.735
19.743
19.75
19.756
19.755
19.755
19.749
19.747
19.739
19.737
19.732
19.737
19.74
19.743
19.737
19.734
19.728
19.727
19.725
19.726
19.721
19.718
19.713
19.711
19.713
19.724
19.741
19.747
19.742
19.724
19.703
19.683
19.673
19.668
19.665
19.663
19.663
19.667
19.672
19.675
19.671
19.668
19.667
19.676
19.683
19.685
19.673
19.661
19.652
19.655
19.66
19.665
19.663
19.656
19.653
19.657
19.661
19.66
19.653
19.652
19.653
19.653
19.647
19.64
19.633
19.631
19.631
19.636
19.643
19.644
19.636
19.619
19.601
19.597
19.598
19.608
19.605
19.597
19.585
19.581
19.582
19.58
19.581
19.588
19.601
19.61
19.609
19.604
19.594
19.591
19.594
19.602
19.606
19.594
19.585
19.58
19.588
19.589
19.583
19.567
19.556
19.556
19.566
19.58
19.582
19.573
19.559
19.555
19.561
19.57
19.574
19.576
19.572
19.571
19.559
19.556
19.551
19.558
19.558
19.557
19.549
19.546
19.545
19.55
19.545
19.536
19.522
19.516
19.517
19.519
19.521
19.523
19.53
19.531
19.531
19.527
19.529
19.529
19.527
19.523
19.526
19.532
19.534
19.529
19.522
19.517
19.508
19.497
19.484
19.482
19.486
19.493
19.498
19.498
19.498
19.498
19.501
19.506
19.508
19.509
19.505
19.504
19.502
19.509
19.513
19.522
19.524
19.531
19.525
19.52
19.508
19.504
19.496
19.496
19.499
19.502
19.5
19.495
19.5
19.508
19.525
19.533
19.533
19.526
19.522
19.527
19.526
19.527
19.534
19.541
19.541
19.529
19.521
19.521
19.527
19.524
19.522
19.516
19.518
19.521
19.523
19.523
19.518
19.517
19.517
19.518
19.518
19.521
19.535
19.549
19.559
19.561
19.558
19.554
19.551
19.549
19.547
19.538
19.536
19.537
19.553
19.571
19.581
19.577
19.566
19.567
19.573
19.586
19.593
19.597
19.596
19.598
19.606
19.612
19.62
19.629
19.645
19.649
19.645
19.631
19.627
19.629
19.632
19.632
19.631
19.634
19.646
19.658
19.665
19.664
19.66
19.664
19.678
19.691
19.696
19.685
19.675
19.673
19.681
19.695
19.708
19.722
19.732
19.737
19.741
19.739
19.737
19.728
19.727
19.736
19.751
19.759
19.759
19.754
19.755
19.755
19.759
19.765
19.775
19.783
19.783
19.789
19.794
19.805
19.811
19.817
19.82
19.826
19.831
19.836
19.838
19.841
19.84
19.835
19.823
19.818
19.816
19.818
19.82
19.828
19.846
19.862
19.872
19.873
19.873
19.873
19.869
19.869
19.873
19.879
19.874
19.867
19.865
19.867
19.865
19.858
19.851
19.85
19.85
19.85
19.852
19.86
19.876
19.888
19.89
19.879
19.864
19.852
19.842
19.838
19.834
19.832
19.83
19.825
19.824
19.825
19.83
19.83
19.825
19.817
19.819
19.826
19.837
19.834
19.827
19.817
19.818
19.822
19.822
19.814
19.802
19.791
19.78
19.78
19.787
19.797
19.792
19.781
19.772
19.768
19.767
19.763
19.756
19.742
19.729
19.725
19.728
19.732
19.727
19.721
19.714
19.713
19.716
19.723
19.729
19.725
19.712
19.694
19.683
19.676
19.673
19.665
19.662
19.663
19.666
19.66
19.653
19.65
19.654
19.661
19.669
19.673
19.668
19.652
19.635
19.622
19.623
19.627
19.632
19.628
19.617
19.606
19.598
19.597
19.604
19.609
19.617
19.619
19.624
19.617
19.605
19.594
19.595
19.605
19.607
19.605
19.603
19.613
19.626
19.629
19.616
19.599
19.594
19.599
19.602
19.6
19.599
19.604
19.604
19.599
19.588
19.586
19.581
19.575
19.561
19.553
19.552
19.554
19.56
19.564
19.571
19.572
19.572
19.573
19.576
19.584
19.586
19.592
19.586
19.577
19.562
19.552
19.553
19.559
19.565
19.564
19.557
19.555
19.56
19.565
19.564
19.558
19.547
19.545
19.55
19.563
19.574
19.577
19.573
19.569
19.563
19.56
19.555
19.549
19.541
19.543
19.554
19.568
19.575
19.576
19.571
19.569
19.57
19.574
19.575
19.579
19.582
19.588
19.58
19.569
19.557
19.557
19.558
19.562
19.563
19.565
19.57
19.57
19.576
19.579
19.584
19.582
19.584
19.592
19.599
19.596
19.58
19.566
19.563
19.569
19.577
19.579
19.577
19.573
19.57
19.57
19.571
19.568
19.561
19.557
19.561
19.572
19.589
19.599
19.601
19.592
19.589
19.592
19.599
19.598
19.591
19.582
19.579
19.579
19.579
19.578
19.573
19.572
19.574
19.582
19.589
19.594
19.602
19.61
19.617
19.623
19.63
19.633
19.638
19.642
19.645
19.636
19.625
19.619
19.627
19.636
19.645
19.651
19.657
19.655
19.652
19.649
19.659
19.671
19.685
19.689
19.688
19.679
19.676
19.677
19.683
19.684
19.683
19.675
19.671
19.67
19.676
19.678
19.682
19.681
19.681
19.681
19.685
19.692
19.7
19.71
19.721
19.731
19.729
19.718
19.7
19.693
19.695
19.701
19.702
19.703
19.703
19.706
19.702
19.695
19.685
19.682
19.689
19.705
19.72
19.726
19.725
19.723
19.724
19.724
19.725
19.727
19.724
19.714
19.7
19.696
19.701
19.71
19.712
19.713
19.714
19.719
19.717
19.712
19.704
19.704
19.708
19.71
19.705
19.701
19.693
19.689
19.681
19.678
19.669
19.661
19.65
19.652
19.66
19.67
19.672
19.666
19.663
19.662
19.67
19.68
19.69
19.688
19.676
19.654
19.638
19.635
19.643
19.648
19.645
19.647
19.65
19.654
19.649
19.649
19.646
19.645
19.634
19.626
19.621
19.62
19.627
19.634
19.65
19.657
19.662
19.651
19.639
19.619
19.611
19.605
19.602
19.588
19.58
19.578
19.587
19.593
19.599
19.6
19.595
19.581
19.565
19.554
19.547
19.55
19.557
19.566
19.562
19.552
19.546
19.555
19.566
19.57
19.561
19.554
19.547
19.551
19.556
19.558
19.554
19.545
19.539
19.53
19.524
19.517
19.52
19.521
19.524
19.52
19.517
19.507
19.493
19.485
19.489
19.506
19.516
19.518
19.51
19.505
19.497
19.493
19.489
19.492
19.486
19.478
19.468
19.471
19.477
19.486
19.483
19.48
19.471
19.469
19.468
19.474
19.484
19.494
19.499
19.496
19.494
19.491
19.489
19.478
19.471
19.47
19.482
19.491
19.499
19.498
19.494
19.495
19.496
19.498
19.496
19.502
19.505
19.506
19.492
19.489
19.493
19.503
19.503
19.502
19.502
19.508
19.509
19.509
19.507
19.506
19.504
19.503
19.501
19.498
19.499
19.506
19.515
19.516
19.513
19.51
19.518
19.527
19.53
19.53
19.531
19.545
19.559
19.572
19.57
19.563
19.559
19.565
19.579
19.592
19.601
19.609
19.617
19.622
19.627
19.635
19.638
19.638
19.636
19.639
19.645
19.653
19.664
19.674
19.68
19.684
19.693
19.707
19.72
19.723
19.721
19.715
19.714
19.713
19.721
19.725
19.729
19.726
19.72
19.719
19.721
19.736
19.754
19.774
19.785
19.786
19.782
19.787
19.795
19.806
19.805
19.806
19.81
19.822
19.834
19.842
19.847
19.852
19.86
19.86
19.851
19.838
19.834
19.841
19.848
19.848
19.837
19.83
19.831
19.843
19.853
19.859
19.864
19.866
19.868
19.863
19.856
19.851
19.849
19.851
19.855
19.859
19.862
19.863
19.867
19.871
19.876
19.875
19.869
19.862
19.853
19.84
19.833
19.835
19.847
19.851
19.851
19.853
19.857
19.857
19.859
19.861
19.859
19.849
19.835
19.833
19.836
19.846
19.847
19.842
19.825
19.802
19.781
19.768
19.763
19.759
19.752
19.745
19.737
19.734
19.733
19.733
19.728
19.72
19.712
19.703
19.695
19.688
19.687
19.684
19.68
19.673
19.674
19.673
19.672
19.671
19.67
19.663
19.641
19.614
19.588
19.569
19.56
19.561
19.569
19.574
19.578
19.574
19.562
19.546
19.532
19.532
19.534
19.541
19.537
19.525
19.503
19.488
19.483
19.486
19.482
19.471
19.457
19.447
19.447
19.451
19.458
19.449
19.429
19.401
19.378
19.369
19.366
19.371
19.37
19.369
19.358
19.347
19.341
19.34
19.335
19.326
19.314
19.302
19.29
19.281
19.285
19.296
19.309
19.309
19.306
19.302
19.299
19.292
19.28
19.268
19.26
19.256
19.252
19.248
19.244
19.244
19.241
19.233
19.226
19.219
19.217
19.217
19.22
19.226
19.23
19.238
19.247
19.257
19.256
19.245
19.234
19.236
19.247
19.257
19.257
19.248
19.235
19.222
19.217
19.22
19.229
19.246
19.257
19.264
19.26
19.251
19.245
19.239
19.238
19.232
19.23
19.231
19.239
19.249
19.256
19.263
19.269
19.271
19.269
19.272
19.28
19.288
19.288
19.286
19.29
19.295
19.3
19.3
19.305
19.31
19.314
19.313
19.316
19.321
19.329
19.334
19.343
19.354
19.368
19.38
19.385
19.386
19.379
19.375
19.376
19.381
19.388
19.396
19.406
19.408
19.4
19.389
19.386
19.391
19.402
19.416
19.432
19.443
19.439
19.427
19.422
19.437
19.459
19.477
19.479
19.478
19.485
19.499
19.518
19.523
19.524
19.515
19.513
19.513
19.523
19.53
19.534
19.535
19.542
19.557
19.575
19.589
19.593
19.593
19.591
19.593
19.588
19.585
19.587
19.6
19.617
19.626
19.632
19.634
19.634
19.632
19.626
19.625
19.626
19.639
19.655
19.668
19.676
19.685
19.693
19.689
19.676
19.666
19.673
19.686
19.684
19.666
19.646
19.636
19.645
19.652
19.662
19.665
19.672
19.674
19.68
19.685
19.69
19.687
19.684
19.688
19.698
19.705
19.709
19.716
19.725
19.739
19.748
19.755
19.739
19.717
19.69
19.683
19.688
19.7
19.703
19.704
19.702
19.704
19.703
19.701
19.7
19.706
19.714
19.719
19.717
19.715
19.716
19.719
19.721
19.713
19.698
19.674
19.658
19.658
19.675
19.697
19.709
19.705
19.698
19.694
19.701
19.704
19.699
19.687
19.684
19.69
19.7
19.701
19.693
19.682
19.672
19.672
19.668
19.669
19.672
19.686
19.7
19.705
19.704
19.697
19.689
19.684
19.678
19.673
19.663
19.654
19.646
19.642
19.644
19.649
19.649
19.64
19.628
19.62
19.614
19.602
19.594
19.592
19.599
19.604
19.607
19.609
19.606
19.598
19.591
19.589
19.591
19.589
19.578
19.565
19.553
19.544
19.534
19.525
19.523
19.522
19.521
19.518
19.516
19.511
19.505
19.502
19.5
19.497
19.482
19.461
19.443
19.439
19.444
19.452
19.448
19.437
19.418
19.401
19.386
19.38
19.379
19.377
19.377
19.368
19.353
19.324
19.299
19.283
19.285
19.288
19.285
19.269
19.254
19.244
19.235
19.227
19.22
19.214
19.197
19.171
19.152
19.149
19.16
19.166
19.161
19.146
19.128
19.112
19.1
19.086
19.077
19.072
19.074
19.074
19.069
19.06
19.05
19.035
19.02
18.996
18.977
18.961
18.954
18.949
18.942
18.94
18.935
18.933
18.923
18.912
18.897
18.879
18.866
18.852
18.847
18.842
18.842
18.842
18.843
18.844
18.836
18.82
18.8
18.789
18.787
18.788
18.789
18.79
18.794
18.793
18.782
18.767
18.753
18.75
18.751
18.752
18.757
18.767
18.773
18.768
18.757
18.756
18.762
18.771
18.773
18.78
18.781
18.786
18.782
18.78
18.78
18.78
18.783
18.782
18.784
18.789
18.795
18.808
18.815
18.827
18.832
18.839
18.842
18.845
18.848
18.853
18.852
18.856
18.861
18.879
18.895
18.91
18.919
18.93
18.945
18.953
18.964
18.969
18.985
18.995
19.01
19.019
19.03
19.044
19.067
19.095
19.12
19.138
19.152
19.164
19.177
19.188
19.197
19.204
19.214
19.232
19.254
19.275
19.295
19.315
19.337
19.355
19.379
19.412
19.445
19.471
19.467
19.468
19.468
19.495
19.513
19.533
19.542
19.561
19.586
19.612
19.637
19.652
19.664
19.671
19.687
19.706
19.725
19.738
19.753
19.776
19.802
19.825
19.837
19.847
19.856
19.864
19.874
19.893
19.915
19.938
19.95
19.961
19.971
19.985
19.996
20.01
20.023
20.045
20.064
20.082
20.085
20.087
20.089
20.098
20.108
20.123
20.137
20.149
20.155
20.172
20.199
20.223
20.229
20.22
20.214
20.216
20.223
20.228
20.228
20.23
20.229
20.229
20.225
20.226
20.237
20.252
20.263
20.26
20.254
20.25
20.257
20.259
20.262
20.256
20.249
20.244
20.249
20.261
20.264
20.258
20.243
20.241
20.242
20.242
20.234
20.223
20.221
20.218
20.22
20.215
20.211
20.201
20.189
20.177
20.162
20.148
20.136
20.137
20.136
20.131
20.121
20.109
20.111
20.106
20.102
20.08
20.059
20.04
20.032
20.025
20.017
20.001
19.989
19.982
19.983
19.982
19.975
19.958
19.943
19.932
19.925
19.916
19.899
19.883
19.868
19.867
19.864
19.864
19.852
19.839
19.819
19.802
19.794
19.78
19.764
19.738
19.726
19.72
19.717
19.709
19.696
19.685
19.683
19.686
19.683
19.665
19.646
19.635
19.637
19.636
19.627
19.604
19.577
19.557
19.549
19.543
19.535
19.521
19.515
19.514
19.515
19.506
19.493
19.474
19.462
19.451
19.443
19.434
19.419
19.409
19.401
19.403
19.403
19.395
19.38
19.363
19.36
19.361
19.364
19.354
19.336
19.318
19.307
19.304
19.302
19.303
19.307
19.304
19.304
19.305
19.308
19.303
19.29
19.278
19.265
19.258
19.261
19.268
19.275
19.276
19.274
19.271
19.264
19.261
19.254
19.25
19.239
19.236
19.233
19.243
19.247
19.242
19.227
19.211
19.205
19.203
19.213
19.218
19.226
19.226
19.232
19.23
19.23
19.229
19.238
19.243
19.244
19.238
19.236
19.242
19.253
19.25
19.237
19.223
19.23
19.253
19.265
19.259
19.24
19.223
19.214
19.212
19.221
19.237
19.254
19.264
19.26
19.257
19.257
19.266
19.277
19.287
19.295
19.299
19.304
19.305
19.303
19.298
19.293
19.289
19.289
19.294
19.301
19.306
19.308
19.314
19.321
19.331
19.335
19.34
19.338
19.333
19.325
19.32
19.324
19.336
19.354
19.374
19.39
19.402
19.408
19.409
19.409
19.409
19.412
19.415
19.415
19.412
19.403
19.394
19.388
19.391
19.397
19.406
19.41
19.413
19.41
19.41
19.411
19.415
19.42
19.425
19.434
19.441
19.448
19.452
19.456
19.456
19.456
19.46
19.47
19.481
19.49
19.497
19.499
19.502
19.503
19.507
19.504
19.497
19.491
19.495
19.506
19.515
19.517
19.52
19.527
19.537
19.545
19.547
19.545
19.55
19.564
19.575
19.569
19.551
19.539
19.539
19.554
19.567
19.579
19.583
19.597
19.61
19.621
19.62
19.618
19.619
19.622
19.626
19.63
19.633
19.639
19.642
19.647
19.648
19.65
19.65
19.652
19.656
19.659
19.667
19.672
19.676
19.675
19.673
19.681
19.69
19.699
19.699
19.699
19.702
19.707
19.709
19.713
19.723
19.743
19.759
19.772
19.772
19.765
19.751
19.74
19.733
19.732
19.735
19.742
19.757
19.771
19.776
19.775
19.775
19.781
19.786
19.786
19.779
19.768
19.758
19.756
19.764
19.777
19.78
19.773
19.761
19.759
19.765
19.78
19.794
19.809
19.812
19.809
19.802
19.796
19.794
19.789
19.788
19.788
19.791
19.785
19.768
19.754
19.753
19.773
19.797
19.81
19.805
19.792
19.781
19.774
19.762
19.758
19.757
19.769
19.775
19.777
19.774
19.767
19.761
19.756
19.754
19.747
19.74
19.735
19.732
19.725
19.715
19.711
19.719
19.725
19.728
19.713
19.698
19.683
19.688
19.694
19.697
19.689
19.677
19.664
19.653
19.645
19.646
19.653
19.661
19.662
19.664
19.66
19.649
19.623
19.599
19.586
19.586
19.587
19.593
19.598
19.604
19.604
19.6
19.596
19.59
19.587
19.581
19.574
19.563
19.554
19.545
19.539
19.526
19.515
19.503
19.505
19.511
19.521
19.522
19.518
19.509
19.501
19.495
19.488
19.488
19.486
19.483
19.468
19.458
19.45
19.451
19.445
19.439
19.437
19.449
19.46
19.46
19.451
19.446
19.447
19.453
19.455
19.456
19.448
19.437
19.42
19.418
19.423
19.437
19.446
19.453
19.455
19.449
19.436
19.42
19.412
19.414
19.422
19.428
19.429
19.432
19.43
19.426
19.418
19.414
19.413
19.419
19.427
19.441
19.447
19.452
19.452
19.455
19.458
19.461
19.465
19.465
19.461
19.454
19.455
19.463
19.483
19.501
19.512
19.514
19.515
19.519
19.518
19.515
19.513
19.526
19.544
19.558
19.56
19.551
19.542
19.537
19.542
19.552
19.566
19.576
19.582
19.584
19.587
19.591
19.595
19.598
19.599
19.608
19.622
19.637
19.647
19.655
19.665
19.67
19.665
19.658
19.658
19.662
19.663
19.663
19.671
19.682
19.691
19.689
19.685
19.676
19.675
19.679
19.692
19.702
19.703
19.696
19.682
19.667
19.657
19.657
19.671
19.686
19.695
19.695
19.688
19.682
19.679
19.684
19.687
19.69
19.692
19.698
19.702
19.7
19.691
19.676
19.665
19.66
19.665
19.668
19.668
19.669
19.667
19.67
19.667
19.672
19.675
19.679
19.675
19.669
19.663
19.655
19.65
19.643
19.638
19.627
19.615
19.606
19.604
19.61
19.618
19.619
19.609
19.591
19.578
19.577
19.583
19.591
19.595
19.598
19.596
19.588
19.571
19.556
19.543
19.537
19.533
19.535
19.537
19.535
19.53
19.525
19.525
19.531
19.538
19.541
19.534
19.525
19.517
19.516
19.517
19.52
19.527
19.532
19.537
19.535
19.528
19.519
19.511
19.513
19.517
19.522
19.521
19.522
19.528
19.536
19.539
19.542
19.546
19.555
19.569
19.579
19.577
19.56
19.542
19.531
19.532
19.534
19.538
19.539
19.546
19.547
19.551
19.554
19.563
19.566
19.566
19.563
19.563
19.569
19.578
19.591
19.596
19.596
19.593
19.592
19.597
19.601
19.607
19.612
19.619
19.62
19.619
19.612
19.614
19.619
19.63
19.635
19.633
19.626
19.616
19.608
19.605
19.615
19.633
19.655
19.669
19.676
19.673
19.664
19.658
19.655
19.663
19.669
19.674
19.669
19.665
19.663
19.666
19.668
19.673
19.672
19.676
19.675
19.679
19.684
19.693
19.7
19.701
19.697
19.692
19.685
19.678
19.671
19.669
19.674
19.682
19.689
19.691
19.684
19.671
19.659
19.654
19.654
19.655
19.66
19.671
19.684
19.692
19.687
19.671
19.655
19.644
19.64
19.638
19.637
19.633
19.63
19.632
19.639
19.652
19.66
19.659
19.643
19.622
19.605
19.596
19.592
19.592
19.596
19.6
19.601
19.596
19.591
19.587
19.583
19.58
19.577
19.578
19.573
19.571
19.568
19.575
19.579
19.581
19.58
19.579
19.584
19.586
19.591
19.589
19.587
19.577
19.565
19.554
19.545
19.545
19.549
19.554
19.553
19.55
19.55
19.559
19.568
19.575
19.567
19.558
19.547
19.545
19.54
19.536
19.532
19.536
19.546
19.561
19.567
19.571
19.57
19.575
19.576
19.573
19.564
19.555
19.551
19.554
19.56
19.571
19.579
19.585
19.585
19.582
19.583
19.585
19.59
19.587
19.583
19.58
19.586
19.596
19.602
19.599
19.592
19.589
19.596
19.605
19.614
19.616
19.616
19.616
19.616
19.619
19.621
19.623
19.625
19.626
19.625
19.623
19.623
19.626
19.63
19.635
19.64
19.653
19.67
19.687
19.701
19.705
19.705
19.694
19.686
19.679
19.681
19.687
19.693
19.697
19.695
19.695
19.692
19.688
19.681
19.679
19.682
19.683
19.678
19.673
19.671
19.673
19.676
19.683
19.693
19.701
19.706
19.708
19.707
19.71
19.707
19.704
19.693
19.688
19.686
19.69
19.692
19.693
19.692
19.687
19.678
19.669
19.66
19.655
19.65
19.65
19.652
19.66
19.67
19.684
19.697
19.706
19.706
19.698
19.686
19.676
19.667
19.663
19.662
19.665
19.663
19.656
19.646
19.643
19.645
19.651
19.651
19.651
19.645
19.641
19.635
19.63
19.624
19.622
19.621
19.624
19.624
19.619
19.611
19.605
19.608
19.614
19.619
19.619
19.622
19.625
19.626
19.619
19.609
19.599
19.596
19.598
19.603
19.604
19.602
19.597
19.592
19.589
19.591
19.598
19.601
19.597
19.585
19.575
19.571
19.576
19.582
19.59
19.594
19.597
19.597
19.6
19.604
19.607
19.606
19.599
19.591
19.586
19.587
19.592
19.6
19.604
19.605
19.605
19.601
19.606
19.613
19.623
19.624
19.618
19.613
19.613
19.619
19.626
19.631
19.641
19.654
19.668
19.673
19.676
19.676
19.677
19.675
19.671
19.671
19.675
19.684
19.691
19.699
19.705
19.707
19.705
19.698
19.694
19.691
19.691
19.693
19.697
19.702
19.708
19.712
19.714
19.709
19.705
19.703
19.709
19.718
19.728
19.734
19.735
19.734
19.732
19.731
19.732
19.742
19.749
19.75
19.741
19.734
19.733
19.735
19.734
19.731
19.729
19.728
19.726
19.723
19.72
19.72
19.724
19.732
19.738
19.739
19.734
19.734
19.743
19.753
19.761
19.758
19.757
19.75
19.746
19.739
19.736
19.732
19.733
19.734
19.736
19.737
19.738
19.738
19.74
19.743
19.748
19.75
19.749
19.743
19.736
19.725
19.715
19.709
19.707
19.7
19.694
19.692
19.699
19.704
19.705
19.706
19.711
19.72
19.724
19.721
19.712
19.699
19.69
19.687
19.69
19.689
19.681
19.67
19.665
19.662
19.66
19.656
19.653
19.653
19.659
19.664
19.671
19.676
19.681
19.686
19.686
19.681
19.672
19.662
19.657
19.655
19.657
19.661
19.665
19.663
19.656
19.651
19.651
19.656
19.661
19.667
19.671
19.674
19.676
19.679
19.68
19.677
19.672
19.668
19.664
19.659
19.658
19.658
19.658
19.651
19.644
19.644
19.648
19.657
19.66
19.662
19.661
19.657
19.652
19.646
19.642
19.643
19.65
19.659
19.667
19.671
19.669
19.662
19.655
19.646
19.64
19.637
19.64
19.648
19.654
19.657
19.653
19.651
19.652
19.659
19.665
19.669
19.67
19.668
19.665
19.667
19.675
19.687
19.692
19.689
19.68
19.673
19.669
19.67
19.676
19.687
19.696
19.696
19.685
19.67
19.659
19.657
19.664
19.674
19.679
19.682
19.678
19.67
19.662
19.663
19.669
19.673
19.665
19.653
19.647
19.655
19.665
19.672
19.671
19.667
19.663
19.658
19.658
19.653
19.652
19.653
19.666
19.675
19.68
19.675
19.669
19.664
19.661
19.658
19.656
19.66
19.67
19.681
19.682
19.677
19.671
19.674
19.687
19.701
19.711
19.715
19.718
19.717
19.713
19.706
19.7
19.702
19.712
19.722
19.723
19.718
19.711
19.713
19.718
19.724
19.721
19.712
19.704
19.704
19.712
19.722
19.729
19.734
19.74
19.747
19.751
19.754
19.754
19.755
19.754
19.757
19.761
19.765
19.767
19.768
19.773
19.778
19.783
19.787
19.794
19.802
19.808
19.807
19.804
19.8
19.8
19.798
19.798
19.802
19.814
19.831
19.846
19.857
19.861
19.864
19.867
19.87
19.873
19.871
19.868
19.862
19.859
19.856
19.859
19.867
19.881
19.897
19.904
19.902
19.9
19.902
19.905
19.904
19.902
19.905
19.912
19.92
19.924
19.933
19.943
19.956
19.961
19.964
19.966
19.97
19.97
19.968
19.965
19.963
19.964
19.971
19.976
19.977
19.971
19.968
19.971
19.976
19.978
19.98
19.98
19.983
19.985
19.992
20.004
20.017
20.027
20.025
20.021
20.015
20.013
20.014
20.016
20.022
20.023
20.022
20.021
20.025
20.03
20.032
20.034
20.036
20.042
20.048
20.053
20.06
20.066
20.071
20.07
20.065
20.063
20.066
20.075
20.082
20.088
20.085
20.079
20.068
20.067
20.07
20.08
20.082
20.083
20.082
20.084
20.083
20.083
20.085
20.09
20.099
20.103
20.103
20.094
20.088
20.085
20.09
20.098
20.107
20.115
20.121
20.124
20.126
20.122
20.119
20.117
20.121
20.123
20.123
20.118
20.114
20.112
20.114
20.116
20.116
20.115
20.115
20.12
20.126
20.132
20.132
20.131
20.131
20.135
20.14
20.146
20.147
20.143
20.135
20.134
20.14
20.151
20.158
20.16
20.156
20.148
20.137
20.131
20.132
20.143
20.155
20.16
20.157
20.152
20.151
20.158
20.171
20.18
20.181
20.172
20.166
20.167
20.17
20.173
20.17
20.167
20.162
20.163
20.169
20.178
20.184
20.183
20.175
20.169
20.171
20.182
20.193
20.199
20.198
20.193
20.189
20.19
20.191
20.191
20.184
20.179
20.173
20.17
20.167
20.167
20.173
20.185
20.195
20.197
20.187
20.174
20.164
20.158
20.159
20.165
20.173
20.177
20.177
20.17
20.163
20.157
20.159
20.165
20.173
20.175
20.169
20.156
20.144
20.136
20.134
20.135
20.136
20.137
20.14
20.142
20.14
20.138
20.138
20.143
20.142
20.139
20.129
20.122
20.115
20.111
20.11
20.113
20.122
20.131
20.135
20.137
20.138
20.14
20.141
20.139
20.136
20.13
20.123
20.119
20.12
20.126
20.135
20.137
20.137
20.134
20.138
20.143
20.143
20.137
20.129
20.126
20.129
20.137
20.149
20.157
20.159
20.155
20.155
20.163
20.178
20.19
20.198
20.197
20.192
20.185
20.177
20.17
20.165
20.163
20.164
20.168
20.178
20.186
20.194
20.195
20.202
20.211
20.225
20.231
20.232
20.224
20.22
20.22
20.224
20.222
20.218
20.215
20.217
20.221
20.224
20.228
20.23
20.231
20.231
20.231
20.233
20.239
20.247
20.258
20.27
20.278
20.281
20.278
20.276
20.275
20.274
20.27
20.26
20.252
20.247
20.252
20.254
20.258
20.263
20.276
20.29
20.301
20.306
20.303
20.295
20.287
20.288
20.297
20.307
20.311
20.309
20.305
20.3
20.298
20.296
20.298
20.296
20.296
20.294
20.297
20.298
20.303
20.306
20.315
20.319
20.32
20.316
20.316
20.318
20.321
20.32
20.315
20.314
20.319
20.327
20.334
20.334
20.328
20.32
20.318
20.321
20.325
20.325
20.321
20.312
20.301
20.297
20.301
20.308
20.31
20.304
20.294
20.282
20.273
20.267
20.267
20.27
20.273
20.269
20.261
20.253
20.254
20.263
20.272
20.277
20.273
20.268
20.263
20.26
20.256
20.257
20.263
20.27
20.273
20.267
20.259
20.247
20.236
20.222
20.214
20.21
20.213
20.22
20.228
20.233
20.235
20.23
20.224
20.215
20.209
20.201
20.196
20.191
20.19
20.188
20.186
20.183
20.179
20.175
20.172
20.172
20.176
20.181
20.183
20.183
20.179
20.173
20.165
20.16
20.16
20.171
20.185
20.197
20.202
20.203
20.2
20.19
20.173
20.153
20.134
20.124
20.118
20.121
20.127
20.132
20.135
20.135
20.135
20.132
20.132
20.133
20.14
20.147
20.155
20.157
20.15
20.142
20.135
20.138
20.138
20.137
20.131
20.125
20.119
20.116
20.118
20.123
20.128
20.132
20.137
20.142
20.144
20.138
20.129
20.12
20.116
20.113
20.115
20.114
20.115
20.115
20.116
20.118
20.121
20.121
20.117
20.112
20.105
20.098
20.087
20.078
20.071
20.071
20.074
20.082
20.089
20.094
20.091
20.089
20.086
20.085
20.083
20.078
20.071
20.064
20.058
20.05
20.043
20.039
20.044
20.05
20.055
20.054
20.05
20.044
20.036
20.024
20.012
20.002
19.995
19.994
19.995
19.998
19.995
19.991
19.99
19.992
19.995
19.99
19.981
19.975
19.976
19.977
19.975
19.971
19.967
19.963
19.958
19.955
19.955
19.96
19.967
19.976
19.977
19.98
19.98
19.98
19.971
19.959
19.949
19.945
19.942
19.937
19.933
19.934
19.938
19.941
19.941
19.94
19.935
19.925
19.913
19.903
19.898
19.899
19.907
19.913
19.918
19.917
19.916
19.91
19.903
19.898
19.906
19.922
19.942
19.953
19.955
19.944
19.93
19.917
19.912
19.91
19.915
19.917
19.922
19.918
19.913
19.901
19.899
19.904
19.92
19.934
19.946
19.955
19.963
19.967
19.966
19.962
19.955
19.947
19.939
19.932
19.932
19.935
19.938
19.936
19.931
19.928
19.927
19.932
19.935
19.938
19.94
19.945
19.952
19.959
19.965
19.968
19.967
19.96
19.955
19.955
19.96
19.963
19.967
19.969
19.97
19.971
19.972
19.974
19.97
19.967
19.968
19.976
19.984
19.992
19.992
19.989
19.983
19.985
19.995
20.005
20.015
20.019
20.019
20.008
19.996
19.988
19.99
20
20.01
20.014
20.009
20
19.995
19.994
19.993
19.987
19.979
19.974
19.975
19.984
19.987
19.985
19.977
19.976
19.981
19.988
19.991
19.993
19.991
19.99
19.985
19.98
19.975
19.972
19.972
19.976
19.984
19.992
19.993
19.992
19.988
19.983
19.976
19.969
19.963
19.958
19.95
19.944
19.939
19.939
19.938
19.939
19.941
19.941
19.94
19.937
19.934
19.933
19.94
19.95
19.959
19.96
19.954
19.944
19.933
19.928
19.926
19.93
19.93
19.928
19.919
19.912
19.908
19.912
19.915
19.922
19.927
19.932
19.932
19.93
19.927
19.923
19.921
19.923
19.932
19.935
19.93
19.917
19.908
19.905
19.907
19.91
19.913
19.916
19.918
19.92
19.924
19.925
19.922
19.918
19.917
19.924
19.93
19.934
19.931
19.93
19.928
19.923
19.917
19.912
19.912
19.916
19.923
19.933
19.944
19.949
19.949
19.946
19.941
19.938
19.931
19.927
19.924
19.932
19.943
19.953
19.952
19.947
19.943
19.948
19.954
19.956
19.954
19.954
19.957
19.959
19.961
19.963
19.969
19.975
19.977
19.977
19.979
19.98
19.98
19.975
19.973
19.973
19.979
19.986
19.994
19.998
20
19.996
19.99
19.98
19.975
19.972
19.975
19.978
19.986
19.992
19.998
19.997
19.993
19.986
19.985
19.984
19.984
19.982
19.981
19.981
19.983
19.984
19.985
19.985
19.987
19.99
19.996
20.002
20.007
20.012
20.014
20.016
20.015
20.015
20.016
20.017
20.012
20.006
19.996
19.992
19.989
19.99
19.991
19.996
20.002
20.002
19.997
19.993
19.996
20.002
20.003
19.993
19.982
19.974
19.977
19.978
19.98
19.975
19.972
19.968
19.966
19.965
19.973
19.979
19.985
19.982
19.982
19.983
19.994
20.002
20.008
20.003
19.995
19.981
19.971
19.967
19.973
19.979
19.984
19.983
19.978
19.971
19.964
19.961
19.956
19.951
19.946
19.947
19.949
19.95
19.948
19.944
19.942
19.947
19.956
19.968
19.977
19.982
19.981
19.977
19.974
19.976
19.98
19.98
19.982
19.985
19.992
19.996
19.994
19.987
19.979
19.975
19.973
19.966
19.957
19.949
19.947
19.946
19.947
19.949
19.949
19.951
19.955
19.967
19.98
19.987
19.984
19.979
19.976
19.98
19.986
19.987
19.983
19.976
19.969
19.965
19.966
19.966
19.962
19.957
19.956
19.962
19.965
19.968
19.97
19.982
19.994
19.999
19.99
19.978
19.969
19.968
19.969
19.971
19.972
19.977
19.985
19.995
20.009
20.017
20.021
20.018
20.014
20.012
20.009
20.005
19.997
19.99
19.988
19.991
19.993
19.992
19.992
19.996
19.998
19.993
19.981
19.968
19.965
19.97
19.979
19.987
19.99
19.991
19.989
19.988
19.987
19.984
19.984
19.984
19.985
19.977
19.968
19.956
19.949
19.947
19.953
19.963
19.972
19.977
19.978
19.972
19.96
19.948
19.942
19.946
19.952
19.957
19.958
19.958
19.958
19.958
19.955
19.955
19.955
19.957
19.95
19.942
19.934
19.933
19.934
19.938
19.943
19.942
19.937
19.927
19.923
19.918
19.918
19.92
19.922
19.917
19.906
19.893
19.888
19.891
19.895
19.899
19.898
19.899
19.901
19.903
19.904
19.905
19.904
19.9
19.894
19.891
19.89
19.889
19.883
19.88
19.88
19.89
19.895
19.896
19.888
19.884
19.886
19.893
19.894
19.885
19.878
19.881
19.895
19.906
19.91
19.907
19.902
19.895
19.884
19.874
19.865
19.865
19.869
19.876
19.879
19.879
19.876
19.872
19.865
19.856
19.85
19.845
19.848
19.857
19.874
19.883
19.883
19.877
19.876
19.878
19.88
19.881
19.883
19.889
19.895
19.901
19.904
19.905
19.904
19.902
19.903
19.902
19.9
19.896
19.89
19.887
19.886
19.893
19.898
19.901
19.899
19.9
19.899
19.902
19.9
19.896
19.884
19.872
19.869
19.874
19.882
19.884
19.882
19.885
19.891
19.897
19.896
19.894
19.891
19.892
19.894
19.897
19.904
19.913
19.916
19.91
19.902
19.896
19.899
19.903
19.91
19.912
19.915
19.916
19.919
19.918
19.911
19.902
19.893
19.888
19.887
19.89
19.9
19.91
19.919
19.918
19.915
19.908
19.905
19.902
19.903
19.903
19.902
19.898
19.897
19.894
19.891
19.885
19.881
19.88
19.881
19.885
19.887
19.886
19.883
19.883
19.888
19.895
19.897
19.89
19.88
19.875
19.879
19.888
19.89
19.886
19.876
19.869
19.863
19.863
19.863
19.861
19.856
19.849
19.845
19.845
19.843
19.84
19.837
19.835
19.838
19.841
19.85
19.855
19.859
19.86
19.86
19.855
19.846
19.844
19.849
19.856
19.856
19.85
19.841
19.835
19.831
19.83
19.832
19.835
19.841
19.843
19.842
19.84
19.843
19.85
19.856
19.858
19.857
19.853
19.849
19.841
19.833
19.821
19.818
19.82
19.825
19.825
19.82
19.816
19.812
19.808
19.806
19.808
19.82
19.833
19.84
19.836
19.826
19.821
19.819
19.819
19.815
19.812
19.807
19.804
19.8
19.796
19.795
19.798
19.802
19.808
19.81
19.808
19.802
19.797
19.798
19.805
19.817
19.826
19.826
19.815
19.801
19.794
19.799
19.807
19.812
19.809
19.803
19.796
19.79
19.788
19.789
19.793
19.791
19.789
19.784
19.786
19.785
19.792
19.795
19.8
19.798
19.789
19.777
19.771
19.774
19.775
19.771
19.764
19.761
19.767
19.778
19.787
19.787
19.78
19.775
19.777
19.783
19.787
19.792
19.794
19.784
19.76
19.736
19.726
19.726
19.73
19.732
19.734
19.734
19.732
19.733
19.742
19.752
19.753
19.749
19.75
19.758
19.77
19.77
19.765
19.752
19.752
19.746
19.744
19.738
19.742
19.746
19.738
19.724
19.706
19.702
19.706
19.717
19.725
19.731
19.735
19.732
19.724
19.715
19.718
19.717
19.716
19.703
19.703
19.706
19.713
19.711
19.703
19.701
19.71
19.723
19.733
19.736
19.732
19.724
19.721
19.72
19.724
19.724
19.726
19.723
19.714
19.706
19.7
19.702
19.695
19.681
19.665
19.652
19.652
19.658
19.674
19.688
19.697
19.692
19.679
19.673
19.675
19.684
19.686
19.687
19.684
19.689
19.693
19.692
19.683
19.675
19.682
19.695
19.705
19.705
19.703
19.703
19.699
19.694
19.688
19.688
19.685
19.685
19.682
19.687
19.691
19.698
19.701
19.7
19.697
19.696
19.696
19.701
19.712
19.724
19.729
19.725
19.719
19.717
19.717
19.712
19.703
19.699
19.704
19.712
19.713
19.709
19.708
19.712
19.715
19.714
19.71
19.704
19.696
19.692
19.693
19.698
19.706
19.714
19.721
19.723
19.72
19.715
19.713
19.712
19.707
19.701
19.702
19.706
19.711
19.711
19.715
19.718
19.722
19.726
19.727
19.731
19.732
19.74
19.747
19.754
19.757
19.756
19.75
19.739
19.728
19.723
19.725
19.727
19.727
19.727
19.732
19.739
19.742
19.741
19.738
19.738
19.74
19.74
19.741
19.737
19.735
19.731
19.733
19.739
19.746
19.751
19.751
19.748
19.744
19.74
19.739
19.74
19.744
19.746
19.75
19.751
19.749
19.745
19.74
19.738
19.737
19.736
19.737
19.733
19.729
19.724
19.727
19.732
19.74
19.749
19.755
19.757
19.752
19.743
19.736
19.733
19.735
19.739
19.738
19.736
19.729
19.725
19.721
19.721
19.723
19.724
19.721
19.716
19.716
19.724
19.735
19.741
19.743
19.742
19.741
19.734
19.726
19.722
19.727
19.735
19.742
19.741
19.735
19.728
19.721
19.718
19.718
19.722
19.726
19.727
19.727
19.721
19.717
19.716
19.72
19.727
19.729
19.726
19.719
19.717
19.718
19.718
19.715
19.712
19.71
19.708
19.704
19.699
19.698
19.699
19.702
19.702
19.699
19.693
19.689
19.689
19.693
19.698
19.704
19.709
19.711
19.708
19.706
19.702
19.702
19.701
19.702
19.703
19.707
19.71
19.71
19.705
19.697
19.694
19.694
19.702
19.711
19.715
19.715
19.711
19.711
19.708
19.702
19.691
19.682
19.679
19.681
19.682
19.677
19.67
19.666
19.665
19.664
19.666
19.667
19.671
19.676
19.678
19.676
19.671
19.667
19.667
19.669
19.67
19.67
19.669
19.665
19.656
19.645
19.641
19.647
19.656
19.663
19.664
19.665
19.662
19.657
19.649
19.646
19.648
19.658
19.668
19.672
19.669
19.664
19.663
19.665
19.67
19.675
19.68
19.682
19.682
19.679
19.672
19.665
19.658
19.656
19.661
19.667
19.67
19.669
19.667
19.666
19.666
19.667
19.665
19.664
19.66
19.656
19.652
19.649
19.648
19.644
19.638
19.629
19.624
19.624
19.632
19.643
19.651
19.653
19.654
19.655
19.659
19.661
19.662
19.657
19.65
19.642
19.638
19.638
19.641
19.644
19.644
19.639
19.633
19.633
19.638
19.645
19.65
19.654
19.658
19.656
19.653
19.646
19.644
19.645
19.65
19.649
19.647
19.645
19.646
19.647
19.644
19.637
19.63
19.622
19.62
19.623
19.63
19.632
19.631
19.628
19.627
19.631
19.641
19.649
19.652
19.653
19.655
19.66
19.665
19.665
19.662
19.655
19.649
19.644
19.639
19.638
19.638
19.644
19.65
19.661
19.67
19.674
19.672
19.663
19.657
19.652
19.654
19.658
19.665
19.671
19.672
19.666
19.654
19.643
19.639
19.64
19.644
19.644
19.644
19.642
19.643
19.641
19.642
19.644
19.651
19.655
19.656
19.655
19.655
19.651
19.642
19.629
19.621
19.621
19.63
19.639
19.645
19.648
19.652
19.657
19.663
19.665
19.664
19.657
19.651
19.645
19.643
19.643
19.645
19.647
19.647
19.646
19.643
19.638
19.633
19.626
19.621
19.616
19.614
19.614
19.618
19.624
19.63
19.633
19.631
19.631
19.63
19.631
19.626
19.619
19.608
19.602
19.599
19.601
19.603
19.611
19.614
19.619
19.618
19.616
19.609
19.603
19.601
19.605
19.615
19.625
19.63
19.63
19.624
19.618
19.611
19.605
19.604
19.604
19.604
19.605
19.607
19.609
19.61
19.609
19.609
19.609
19.611
19.614
19.62
19.62
19.617
19.609
19.601
19.593
19.59
19.591
19.597
19.597
19.592
19.58
19.575
19.577
19.588
19.596
19.598
19.595
19.594
19.593
19.594
19.593
19.592
19.587
19.58
19.577
19.578
19.581
19.584
19.585
19.585
19.584
19.581
19.581
19.582
19.587
19.588
19.588
19.583
19.577
19.567
19.56
19.558
19.56
19.567
19.571
19.576
19.577
19.573
19.566
19.561
19.561
19.561
19.562
19.562
19.565
19.565
19.566
19.571
19.579
19.583
19.578
19.573
19.569
19.569
19.566
19.565
19.569
19.583
19.598
19.609
19.613
19.612
19.608
19.603
19.598
19.59
19.578
19.565
19.554
19.546
19.543
19.547
19.553
19.559
19.563
19.566
19.573
19.581
19.585
19.585
19.585
19.588
19.59
19.588
19.589
19.591
19.595
19.589
19.582
19.574
19.573
19.573
19.573
19.576
19.579
19.583
19.584
19.588
19.592
19.597
19.598
19.597
19.593
19.588
19.583
19.583
19.586
19.592
19.595
19.596
19.594
19.596
19.601
19.608
19.61
19.611
19.611
19.618
19.622
19.623
19.613
19.602
19.596
19.599
19.604
19.609
19.612
19.617
19.621
19.626
19.628
19.627
19.624
19.618
19.614
19.613
19.615
19.619
19.622
19.63
19.635
19.64
19.64
19.64
19.638
19.636
19.632
19.632
19.635
19.642
19.643
19.642
19.64
19.64
19.643
19.645
19.646
19.64
19.632
19.625
19.624
19.629
19.635
19.64
19.64
19.637
19.632
19.629
19.631
19.636
19.647
19.656
19.662
19.664
19.663
19.664
19.662
19.664
19.665
19.67
19.672
19.671
19.67
19.67
19.677
19.686
19.694
19.697
19.696
19.693
19.692
19.693
19.695
19.698
19.701
19.705
19.709
19.707
19.699
19.693
19.684
19.679
19.675
19.676
19.678
19.68
19.684
19.691
19.7
19.709
19.714
19.717
19.717
19.716
19.714
19.716
19.721
19.726
19.728
19.728
19.727
19.727
19.727
19.727
19.729
19.732
19.737
19.739
19.737
19.727
19.718
19.71
19.709
19.712
19.718
19.725
19.73
19.733
19.738
19.743
19.748
19.75
19.751
19.749
19.745
19.742
19.745
19.751
19.751
19.745
19.736
19.733
19.734
19.737
19.737
19.734
19.734
19.738
19.746
19.751
19.755
19.756
19.759
19.764
19.769
19.767
19.763
19.758
19.758
19.756
19.755
19.755
19.757
19.765
19.772
19.779
19.782
19.784
19.784
19.78
19.77
19.759
19.751
19.753
19.761
19.768
19.768
19.766
19.768
19.775
19.785
19.79
19.791
19.786
19.783
19.781
19.783
19.784
19.785
19.783
19.783
19.784
19.781
19.776
19.777
19.786
19.796
19.799
19.793
19.785
19.78
19.782
19.793
19.809
19.827
19.838
19.843
19.842
19.84
19.838
19.835
19.833
19.833
19.835
19.836
19.84
19.844
19.849
19.849
19.85
19.853
19.861
19.868
19.872
19.871
19.868
19.866
19.87
19.872
19.873
19.87
19.868
19.87
19.878
19.885
19.89
19.89
19.89
19.89
19.893
19.898
19.903
19.909
19.912
19.917
19.923
19.932
19.941
19.946
19.952
19.958
19.968
19.975
19.98
19.977
19.973
19.971
19.975
19.982
19.987
19.991
19.999
20.012
20.026
20.036
20.041
20.038
20.034
20.026
20.024
20.022
20.021
20.017
20.015
20.021
20.03
20.041
20.049
20.058
20.069
20.078
20.083
20.085
20.088
20.093
20.1
20.103
20.1
20.098
20.105
20.118
20.128
20.127
20.125
20.128
20.135
20.142
20.147
20.156
20.166
20.177
20.18
20.178
20.173
20.172
20.179
20.191
20.204
20.214
20.219
20.222
20.225
20.229
20.232
20.235
20.238
20.237
20.239
20.244
20.257
20.268
20.276
20.283
20.289
20.294
20.293
20.289
20.283
20.28
20.282
20.288
20.295
20.304
20.314
20.326
20.331
20.333
20.33
20.329
20.331
20.338
20.349
20.36
20.372
20.382
20.39
20.396
20.398
20.398
20.398
20.4
20.406
20.411
20.416
20.416
20.418
20.422
20.43
20.437
20.443
20.446
20.452
20.457
20.463
20.468
20.472
20.476
20.479
20.483
20.487
20.495
20.5
20.508
20.512
20.521
20.529
20.539
20.539
20.532
20.518
20.512
20.515
20.527
20.534
20.54
20.545
20.553
20.559
20.562
20.564
20.567
20.567
20.568
20.57
20.58
20.592
20.605
20.612
20.613
20.608
20.602
20.6
20.605
20.614
20.618
20.617
20.614
20.618
20.622
20.62
20.611
20.603
20.601
20.603
20.607
20.608
20.609
20.614
20.624
20.63
20.633
20.633
20.635
20.632
20.627
20.624
20.628
20.637
20.648
20.656
20.662
20.66
20.655
20.648
20.641
20.641
20.645
20.652
20.649
20.642
20.633
20.633
20.636
20.642
20.644
20.648
20.651
20.656
20.662
20.669
20.672
20.671
20.668
20.67
20.67
20.67
20.67
20.674
20.675
20.673
20.661
20.652
20.646
20.645
20.644
20.643
20.648
20.656
20.663
20.665
20.661
20.655
20.648
20.644
20.642
20.641
20.638
20.636
20.634
20.631
20.625
20.617
20.615
20.618
20.623
20.624
20.622
20.619
20.622
20.626
20.626
20.624
20.618
20.616
20.615
20.622
20.629
20.633
20.63
20.625
20.62
20.615
20.607
20.598
20.593
20.594
20.599
20.604
20.607
20.605
20.596
20.581
20.566
20.56
20.562
20.568
20.573
20.577
20.584
20.586
20.584
20.579
20.581
20.59
20.597
20.596
20.587
20.577
20.573
20.576
20.579
20.582
20.582
20.58
20.572
20.567
20.563
20.565
20.564
20.566
20.573
20.583
20.585
20.581
20.573
20.565
20.554
20.543
20.535
20.535
20.543
20.552
20.559
20.561
20.561
20.563
20.565
20.565
20.56
20.555
20.553
20.561
20.57
20.581
20.589
20.591
20.584
20.574
20.564
20.561
20.565
20.572
20.579
20.58
20.578
20.576
20.574
20.574
20.576
20.584
20.588
20.59
20.586
20.578
20.571
20.566
20.568
20.57
20.576
20.579
20.582
20.579
20.578
20.58
20.589
20.595
20.594
20.591
20.588
20.589
20.585
20.581
20.577
20.581
20.584
20.591
20.598
20.603
20.603
20.6
20.602
20.604
20.604
20.6
20.596
20.592
20.59
20.588
20.588
20.593
20.599
20.606
20.608
20.606
20.6
20.597
20.594
20.595
20.599
20.606
20.613
20.61
20.607
20.602
20.605
20.606
20.605
20.603
20.606
20.609
20.611
20.607
20.602
20.597
20.595
20.592
20.594
20.6
20.614
20.623
20.625
20.614
20.6
20.589
20.585
20.586
20.586
20.583
20.575
20.57
20.569
20.575
20.582
20.588
20.591
20.591
20.589
20.588
20.592
20.599
20.609
20.614
20.616
20.613
20.61
20.607
20.603
20.596
20.589
20.581
20.575
20.573
20.576
20.585
20.592
20.596
20.597
20.599
20.601
20.599
20.589
20.572
20.559
20.553
20.56
20.57
20.583
20.589
20.593
20.594
20.594
20.592
20.588
20.586
20.585
20.583
20.578
20.575
20.574
20.573
20.572
20.567
20.564
20.562
20.562
20.559
20.554
20.55
20.547
20.541
20.528
20.518
20.514
20.522
20.533
20.543
20.545
20.545
20.543
20.542
20.542
20.545
20.55
20.551
20.549
20.542
20.535
20.528
20.521
20.515
20.511
20.513
20.517
20.521
20.52
20.514
20.504
20.491
20.478
20.466
20.462
20.465
20.473
20.477
20.478
20.475
20.472
20.472
20.474
20.479
20.48
20.481
20.478
20.474
20.466
20.455
20.449
20.443
20.439
20.432
20.428
20.421
20.412
20.394
20.379
20.374
20.379
20.391
20.399
20.403
20.399
20.395
20.393
20.396
20.396
20.393
20.384
20.372
20.361
20.356
20.36
20.364
20.364
20.356
20.345
20.331
20.32
20.314
20.315
20.317
20.316
20.312
20.307
20.302
20.299
20.297
20.297
20.294
20.284
20.272
20.265
20.265
20.27
20.275
20.275
20.27
20.26
20.252
20.248
20.253
20.262
20.274
20.278
20.275
20.266
20.259
20.254
20.25
20.242
20.23
20.219
20.215
20.216
20.222
20.224
20.22
20.211
20.206
20.202
20.201
20.195
20.189
20.178
20.168
20.158
20.154
20.159
20.166
20.174
20.181
20.19
20.196
20.196
20.188
20.177
20.169
20.17
20.176
20.182
20.181
20.18
20.179
20.184
20.188
20.192
20.192
20.187
20.179
20.173
20.17
20.166
20.161
20.158
20.158
20.158
20.158
20.159
20.165
20.171
20.182
20.187
20.186
20.177
20.171
20.17
20.169
20.164
20.155
20.148
20.145
20.148
20.152
20.155
20.155
20.158
20.166
20.177
20.184
20.182
20.175
20.17
20.168
20.165
20.164
20.166
20.172
20.178
20.181
20.182
20.178
20.175
20.172
20.171
20.167
20.161
20.158
20.157
20.159
20.16
20.163
20.17
20.174
20.172
20.167
20.166
20.167
20.167
20.166
20.166
20.167
20.17
20.171
20.175
20.176
20.179
20.183
20.188
20.189
20.182
20.176
20.179
20.191
20.2
20.199
20.189
20.179
20.174
20.176
20.185
20.195
20.202
20.197
20.185
20.172
20.17
20.178
20.189
20.194
20.196
20.19
20.186
20.18
20.177
20.173
20.17
20.174
20.183
20.198
20.209
20.211
20.205
20.198
20.199
20.204
20.21
20.208
20.2
20.189
20.181
20.179
20.181
20.183
20.187
20.196
20.206
20.212
20.212
20.211
20.215
20.219
20.221
20.221
20.222
20.22
20.213
20.203
20.192
20.186
20.189
20.198
20.208
20.213
20.21
20.206
20.207
20.212
20.213
20.212
20.212
20.218
20.224
20.231
20.235
20.239
20.243
20.249
20.257
20.264
20.269
20.272
20.268
20.255
20.238
20.227
20.224
20.222
20.221
20.225
20.237
20.248
20.249
20.244
20.242
20.244
20.246
20.244
20.241
20.236
20.236
20.234
20.234
20.23
20.232
20.235
20.24
20.239
20.233
20.231
20.232
20.235
20.24
20.246
20.251
20.248
20.238
20.224
20.215
20.213
20.22
20.228
20.233
20.233
20.233
20.235
20.237
20.238
20.244
20.256
20.269
20.27
20.258
20.242
20.23
20.227
20.228
20.233
20.24
20.244
20.246
20.241
20.234
20.229
20.233
20.239
20.241
20.233
20.219
20.206
20.197
20.191
20.188
20.184
20.184
20.181
20.179
20.177
20.18
20.187
20.192
20.193
20.189
20.186
20.186
20.192
20.2
20.207
20.208
20.205
20.203
20.202
20.204
20.205
20.207
20.208
20.21
20.21
20.208
20.204
20.203
20.204
20.203
20.199
20.192
20.187
20.184
20.188
20.192
20.194
20.189
20.186
20.186
20.186
20.183
20.174
20.168
20.164
20.165
20.167
20.169
20.171
20.173
20.176
20.177
20.173
20.164
20.155
20.149
20.145
20.141
20.14
20.141
20.145
20.149
20.148
20.144
20.136
20.135
20.135
20.137
20.136
20.14
20.148
20.159
20.165
20.162
20.16
20.16
20.163
20.161
20.16
20.156
20.154
20.15
20.146
20.145
20.145
20.146
20.142
20.138
20.134
20.131
20.126
20.121
20.12
20.126
20.135
20.138
20.134
20.125
20.114
20.102
20.095
20.092
20.094
20.098
20.102
20.108
20.111
20.111
20.109
20.113
20.123
20.136
20.143
20.141
20.135
20.131
20.129
20.127
20.123
20.12
20.118
20.115
20.111
20.107
20.107
20.106
20.111
20.111
20.114
20.112
20.114
20.113
20.113
20.11
20.106
20.095
20.084
20.078
20.08
20.084
20.087
