Tektronix:  IConnect
Version 6.1.0

File Created: April 06, 2017 at 12:33PM
Created By: Tek_Local_Admin

Format: Waveform
Type: Frequency Domain

== Begin Header ==

Type: Scattering

Data Type: dBMagnitude/Phase
Samples: 501
Step Size: 40meg
First Step: 0
Reference Impedance: 50

== End Header ==

Data:
-0.40251	0
-0.43095	-10.531
-0.51556	-20.962
-0.65201	-31.176
-0.82725	-41.048
-1.0177	-50.496
-1.194	-59.525
-1.3309	-68.245
-1.4161	-76.834
-1.454	-85.473
-1.4618	-94.277
-1.4598	-103.27
-1.462	-112.39
-1.4709	-121.54
-1.4775	-130.68
-1.4672	-139.83
-1.4318	-149.09
-1.3799	-158.62
-1.3382	-168.52
-1.3405	-178.72
-1.4097	170.98
-1.5424	160.85
-1.7072	151.07
-1.8628	141.62
-1.9885	132.27
-2.1031	122.76
-2.2532	113.06
-2.478	103.44
-2.7755	94.317
-3.0874	86.071
-3.318	78.675
-3.396	71.588
-3.3368	64.056
-3.2344	55.659
-3.1923	46.554
-3.2634	37.294
-3.4291	28.506
-3.6061	20.579
-3.6848	13.375
-3.6039	6.2186
-3.3998	-1.6352
-3.1721	-10.487
-3.0099	-20.122
-2.9512	-30.069
-2.9813	-39.878
-3.0497	-49.304
-3.1008	-58.403
-3.1075	-67.454
-3.085	-76.737
-3.0723	-86.328
-3.0992	-96.085
-3.1691	-105.79
-3.2643	-115.31
-3.3622	-124.63
-3.4499	-133.81
-3.5273	-142.92
-3.5984	-151.98
-3.6599	-160.96
-3.7016	-169.91
-3.7178	-178.93
-3.7188	171.84
-3.7316	162.3
-3.7887	152.53
-3.9089	142.75
-4.08	133.21
-4.259	124.05
-4.4007	115.1
-4.4962	105.99
-4.5856	96.403
-4.7386	86.293
-5.0241	75.965
-5.4753	66.066
-6.0435	57.437
-6.5678	50.559
-6.8553	44.813
-6.8679	38.702
-6.7582	31.218
-6.7114	22.465
-6.8353	13.236
-7.1401	4.5547
-7.526	-2.6341
-7.7836	-8.0819
-7.7256	-12.904
-7.3928	-18.818
-6.9988	-26.475
-6.7095	-35.32
-6.567	-44.45
-6.5195	-53.167
-6.4636	-61.24
-6.3046	-69.056
-6.0343	-77.369
-5.7389	-86.664
-5.5219	-96.824
-5.4385	-107.34
-5.4816	-117.65
-5.5927	-127.34
-5.6864	-136.37
-5.6983	-145.15
-5.6357	-154.23
-5.5687	-163.89
-5.5645	-173.95
-5.641	175.99
-5.7723	166.23
-5.9168	156.86
-6.0421	147.77
-6.1376	138.8
-6.2093	129.83
-6.2631	120.81
-6.2962	111.71
-6.3103	102.38
-6.3283	92.658
-6.395	82.478
-6.5639	71.994
-6.8761	61.611
-7.3294	51.975
-7.8389	43.735
-8.2376	36.961
-8.3934	30.701
-8.3452	23.653
-8.2574	15.271
-8.28	5.9159
-8.4826	-3.5745
-8.8393	-12.246
-9.2205	-19.44
-9.4438	-25.371
-9.4207	-31.196
-9.2406	-37.999
-9.0652	-45.9
-8.9872	-54.234
-8.9826	-62.214
-8.9399	-69.534
-8.7531	-76.689
-8.4267	-84.603
-8.0794	-93.814
-7.8447	-104.1
-7.7911	-114.73
-7.9043	-124.92
-8.0986	-134.08
-8.2391	-142.08
-8.2026	-149.52
-7.9702	-157.47
-7.6478	-166.74
-7.3826	-177.4
-7.2854	171
-7.41	159.2
-7.7519	148.02
-8.2358	138.28
-8.7037	130.42
-8.9562	124.07
-8.8855	117.83
-8.5776	110.25
-8.2323	100.81
-8.0158	89.931
-8.0042	78.425
-8.1977	67.099
-8.5389	56.605
-8.9235	47.284
-9.2318	38.951
-9.3988	30.894
-9.462	22.348
-9.5259	13.035
-9.6825	3.2619
-9.9571	-6.3549
-10.298	-15.3
-10.614	-23.519
-10.846	-31.474
-11.026	-39.74
-11.25	-48.449
-11.605	-57.082
-12.085	-64.711
-12.56	-70.531
-12.801	-74.629
-12.639	-78.481
-12.154	-84.009
-11.602	-91.968
-11.2	-101.8
-11.044	-112.43
-11.132	-122.81
-11.387	-132.04
-11.653	-139.56
-11.716	-145.65
-11.446	-151.73
-10.922	-159.46
-10.371	-169.54
-10.005	178.46
-9.9396	165.53
-10.196	152.82
-10.715	141.36
-11.366	131.95
-11.948	124.85
-12.24	119.29
-12.175	113.53
-11.913	106.16
-11.681	97.111
-11.615	87.214
-11.726	77.516
-11.92	68.791
-12.04	61.123
-11.969	53.706
-11.731	45.358
-11.483	35.463
-11.394	24.355
-11.548	13.004
-11.914	2.5024
-12.354	-6.4156
-12.673	-13.821
-12.73	-20.838
-12.572	-29.021
-12.414	-39.088
-12.466	-50.526
-12.833	-62.18
-13.521	-72.722
-14.429	-80.698
-15.269	-84.875
-15.551	-85.968
-15.042	-87.88
-14.137	-93.976
-13.368	-104.1
-13.008	-116.31
-13.096	-128.58
-13.529	-139.25
-14.086	-147.15
-14.428	-152.19
-14.258	-156.21
-13.615	-162.16
-12.856	-171.47
-12.305	176.49
-12.103	163.1
-12.271	149.63
-12.764	137.19
-13.468	126.78
-14.17	118.98
-14.598	113.21
-14.627	107.48
-14.429	99.948
-14.301	90.437
-14.435	80.171
-14.831	70.808
-15.31	63.616
-15.569	58.632
-15.384	54.079
-14.851	47.591
-14.293	38.387
-13.957	27.401
-13.912	16.096
-14.081	5.6976
-14.291	-3.1604
-14.333	-10.848
-14.103	-18.811
-13.717	-28.551
-13.412	-40.491
-13.396	-53.978
-13.787	-67.764
-14.606	-80.253
-15.731	-89.597
-16.796	-94.307
-17.21	-95.445
-16.753	-97.771
-15.938	-104.77
-15.337	-115.79
-15.197	-128.56
-15.532	-140.97
-16.233	-151.2
-17.025	-157.69
-17.407	-160.38
-16.986	-162.67
-16.006	-168.69
-15.014	-179.33
-14.362	166.75
-14.199	151.29
-14.558	135.91
-15.39	122.22
-16.547	111.81
-17.693	106
-18.283	104.06
-18.032	101.77
-17.355	95.403
-16.81	85.101
-16.668	72.755
-16.993	60.24
-17.747	49.337
-18.747	41.883
-19.561	38.897
-19.667	38.445
-19.016	36.181
-18.07	29.787
-17.245	19.864
-16.724	7.9847
-16.516	-4.4157
-16.537	-16.405
-16.677	-27.624
-16.844	-38.165
-16.993	-48.348
-17.123	-58.487
-17.267	-68.74
-17.465	-79.051
-17.751	-89.129
-18.121	-98.456
-18.498	-106.51
-18.733	-113.31
-18.704	-119.8
-18.451	-127.43
-18.182	-137.01
-18.14	-148.11
-18.474	-159.27
-19.157	-168.5
-19.93	-173.98
-20.28	-175.48
-19.75	-176.28
-18.525	178.83
-17.226	168.32
-16.302	153.61
-15.933	136.77
-16.144	119.57
-16.9	103.57
-18.099	90.467
-19.475	82.034
-20.474	78.925
-20.5	77.861
-19.687	73.14
-18.753	62.78
-18.227	48.594
-18.281	33.318
-18.848	19.23
-19.746	7.9054
-20.706	0.33789
-21.341	-3.5915
-21.323	-6.2084
-20.734	-10.829
-19.952	-18.874
-19.285	-29.846
-18.887	-42.702
-18.814	-56.396
-19.057	-69.953
-19.543	-82.637
-20.168	-94.116
-20.841	-104.45
-21.509	-113.89
-22.159	-122.63
-22.784	-130.67
-23.351	-137.92
-23.793	-144.43
-24.044	-150.67
-24.101	-157.44
-24.074	-165.43
-24.128	-174.57
-24.386	176.03
-24.856	167.72
-25.384	161.93
-25.593	159.05
-25.109	156.64
-24.081	150.82
-23.03	140.44
-22.315	126.87
-22.051	111.8
-22.243	96.631
-22.848	82.543
-23.763	70.774
-24.746	62.43
-25.388	57.237
-25.426	52.345
-25.098	44.853
-24.796	34.631
-24.694	23.011
-24.78	11.089
-24.987	-0.6463
-25.257	-12.151
-25.576	-23.584
-25.971	-35.046
-26.49	-46.36
-27.16	-57.021
-27.942	-66.375
-28.717	-73.991
-29.316	-80.124
-29.627	-85.917
-29.695	-92.808
-29.693	-101.59
-29.794	-112.17
-30.106	-124.08
-30.691	-136.82
-31.613	-149.92
-32.97	-162.54
-34.832	-172.72
-36.954	-177.03
-38.377	-174.11
-38.31	-171.06
-37.455	-174.85
-36.661	174.85
-36.286	159.85
-36.57	141.08
-37.918	118.7
-41.304	91.722
-50.763	44.937
-46.237	-110.04
-38.6	-145.44
-35.026	-171.15
-33.069	166.27
-32.055	145.87
-31.719	127.65
-31.892	112.35
-32.28	101.05
-32.384	93.169
-31.949	85.128
-31.302	73.938
-30.876	59.741
-30.903	44.251
-31.421	29.773
-32.197	18.954
-32.585	12.704
-32.035	6.8228
-30.928	-3.6559
-29.936	-18.821
-29.391	-36.504
-29.396	-54.592
-29.963	-70.998
-30.935	-83.157
-31.725	-89.196
-31.546	-92.67
-30.644	-100.46
-29.87	-113.7
-29.652	-130.13
-30.117	-147.72
-31.329	-164.74
-33.304	-178.98
-35.836	172.83
-38.101	173.19
-39.002	176.95
-38.903	175
-38.795	166.28
-39.01	152.88
-39.543	135.33
-40.394	112.51
-41.594	82.45
-42.96	42.873
-43.74	-6.4299
-43.172	-58.497
-41.779	-105.12
-40.443	-145.14
-39.589	-179.7
-39.385	151.38
-39.765	130.17
-40.099	118.99
-39.316	114.03
-37.523	105.84
-35.796	91.634
-34.782	73.713
-34.772	55.014
-35.91	39.352
-37.944	33.274
-38.944	42.075
-37.08	47.874
-34.734	38.442
-33.237	20.08
-32.673	-2.8399
-32.942	-28.607
-33.934	-56.472
-35.482	-85.627
-37.256	-114.34
-38.71	-139.59
-39.199	-159.03
-38.414	-174.73
-36.832	168.68
-35.256	149.26
-34.24	127.69
-34.07	105.5
-34.881	84.545
-36.749	67.297
-39.609	58.394
-42.267	65.248
-42.028	77.827
-40.528	75.552
-40.048	63.626
-41.054	50.777
-43.28	46.642
-44.249	57.946
-42.303	61.404
-40.569	48.324
-40.221	27.396
-41.583	3.1716
-45.758	-20.658
-58.941	1.8018
-46.666	72.774
-40.942	45.42
-38.574	11.866
-37.985	-25.615
-38.581	-69.144
-39.427	-122.56
-38.805	177.94
-36.852	126.44
-35.273	85.786
-34.832	53.244
-35.666	29.497
-37.214	19.736
-37.141	24.165
-34.689	21.775
-32.315	6.3904
-30.973	-15.717
-30.776	-40.629
-31.758	-66.369
-34.089	-91.948
-38.43	-116.89
