Tektronix:  IConnect
Version 6.1.0

File Created: April 06, 2017 at 12:35PM
Created By: Tek_Local_Admin

Format: Waveform
Type: Frequency Domain

== Begin Header ==

Type: Scattering

Data Type: dBMagnitude/Phase
Samples: 501
Step Size: 40meg
First Step: 0
Reference Impedance: 50

== End Header ==

Data:
-0.26607	0
-0.28356	-10.665
-0.33321	-21.296
-0.41441	-31.842
-0.52192	-42.244
-0.64486	-52.467
-0.77065	-62.522
-0.89108	-72.466
-1.0062	-82.37
-1.123	-92.274
-1.2524	-102.16
-1.3982	-111.99
-1.5584	-121.67
-1.7253	-131.16
-1.8865	-140.42
-2.0281	-149.49
-2.141	-158.43
-2.2256	-167.35
-2.2929	-176.3
-2.3575	174.72
-2.423	165.82
-2.475	157.07
-2.4902	148.45
-2.4541	139.78
-2.3774	130.85
-2.2936	121.55
-2.2378	111.98
-2.2244	102.35
-2.238	92.899
-2.2424	83.682
-2.2048	74.535
-2.1254	65.186
-2.0379	55.452
-1.9857	45.377
-1.9957	35.189
-2.0644	25.172
-2.1615	15.524
-2.2441	6.2661
-2.2801	-2.7787
-2.26	-11.893
-2.2061	-21.303
-2.1535	-31.08
-2.1328	-41.145
-2.1594	-51.338
-2.2314	-61.487
-2.3332	-71.468
-2.4416	-81.256
-2.5404	-90.932
-2.6256	-100.63
-2.7111	-110.46
-2.8183	-120.4
-2.9626	-130.33
-3.1451	-140.09
-3.3505	-149.51
-3.5497	-158.53
-3.7098	-167.19
-3.8126	-175.72
-3.8668	175.67
-3.9016	166.86
-3.9462	157.93
-4.01	149.07
-4.076	140.43
-4.1089	132.06
-4.0774	123.76
-3.9805	115.21
-3.8543	106.17
-3.7485	96.646
-3.6928	86.805
-3.6945	76.867
-3.7456	66.998
-3.8323	57.312
-3.9358	47.89
-4.0291	38.76
-4.0828	29.819
-4.0854	20.823
-4.0607	11.534
-4.0499	1.8973
-4.0918	-7.916
-4.2004	-17.576
-4.3498	-26.71
-4.4677	-35.121
-4.4647	-43.08
-4.3121	-51.331
-4.0853	-60.514
-3.9022	-70.66
-3.8338	-81.301
-3.8857	-91.866
-4.0109	-101.93
-4.1312	-111.4
-4.1805	-120.61
-4.162	-130.15
-4.1533	-140.37
-4.2453	-151.04
-4.4832	-161.59
-4.8335	-171.28
-5.181	-179.67
-5.3721	172.96
-5.3308	165.53
-5.1512	156.93
-5.0146	147.03
-5.0385	136.57
-5.221	126.52
-5.4677	117.52
-5.6417	109.62
-5.6352	102.18
-5.4479	94.22
-5.1887	85.104
-4.9858	74.949
-4.8989	64.32
-4.9138	53.704
-4.9927	43.276
-5.1169	33.017
-5.295	22.947
-5.5301	13.26
-5.7944	4.2784
-6.0063	-3.844
-6.0718	-11.504
-5.9784	-19.552
-5.8223	-28.58
-5.7256	-38.502
-5.7598	-48.743
-5.9254	-58.567
-6.1376	-67.383
-6.2555	-75.173
-6.1751	-82.734
-5.9329	-91.144
-5.6734	-100.85
-5.5269	-111.47
-5.5367	-122.2
-5.649	-132.33
-5.7452	-141.66
-5.7232	-150.73
-5.5949	-160.47
-5.4846	-171.36
-5.532	176.92
-5.8087	165.23
-6.2852	154.65
-6.8189	146.03
-7.1749	139.36
-7.1664	133.28
-6.8487	125.84
-6.4685	116.22
-6.2433	104.96
-6.2683	93.128
-6.5332	81.849
-6.9387	72.033
-7.3017	64.067
-7.4226	57.332
-7.2297	50.327
-6.8449	41.718
-6.4677	31.2
-6.2494	19.283
-6.255	6.7711
-6.4794	-5.5909
-6.8779	-17.263
-7.3887	-27.899
-7.9392	-37.304
-8.4439	-45.472
-8.8191	-52.697
-9.0191	-59.593
-9.0666	-66.795
-9.0335	-74.638
-8.9934	-83.064
-8.9835	-91.757
-8.994	-100.4
-8.9878	-108.9
-8.9358	-117.4
-8.8434	-126.14
-8.7413	-135.21
-8.6523	-144.5
-8.5698	-153.84
-8.4623	-163.25
-8.3081	-172.99
-8.1314	176.54
-8.0071	165.1
-8.0304	152.84
-8.2804	140.27
-8.7959	128.22
-9.5444	117.78
-10.372	110.08
-10.949	105.48
-10.938	102.07
-10.394	96.606
-9.7152	87.653
-9.2406	76.043
-9.1059	63.399
-9.2882	51.244
-9.6417	40.624
-9.9565	31.784
-10.045	23.885
-9.8806	15.377
-9.6217	5.1734
-9.4734	-6.7027
-9.5663	-19.482
-9.9405	-32.196
-10.568	-43.885
-11.34	-53.764
-12.077	-61.521
-12.59	-67.785
-12.822	-73.979
-12.904	-81.217
-13.03	-89.465
-13.311	-97.729
-13.698	-104.71
-13.974	-109.66
-13.855	-113.38
-13.258	-118.2
-12.423	-126
-11.681	-136.79
-11.236	-149.36
-11.137	-162.29
-11.324	-174.33
-11.655	175.36
-11.913	167.01
-11.881	159.65
-11.523	151.31
-11.052	140.53
-10.76	127.33
-10.845	112.85
-11.38	98.684
-12.315	86.53
-13.453	78.095
-14.354	74.333
-14.453	73.097
-13.731	69.348
-12.776	60.683
-12.072	48.348
-11.774	34.456
-11.847	20.659
-12.172	7.9995
-12.586	-3.0811
-12.922	-12.87
-13.095	-22.351
-13.16	-32.621
-13.28	-44.084
-13.609	-56.263
-14.217	-68.112
-15.061	-78.434
-15.978	-86.327
-16.711	-91.818
-17.063	-96.363
-17.098	-101.95
-17.078	-109.29
-17.211	-117.49
-17.521	-125.05
-17.842	-130.74
-17.871	-134.6
-17.394	-138.58
-16.537	-145.09
-15.63	-154.96
-14.945	-167.47
-14.616	178.68
-14.664	164.86
-15.02	152.31
-15.517	141.98
-15.896	134.02
-15.917	127.12
-15.574	118.96
-15.14	108.06
-14.933	94.705
-15.152	80.226
-15.862	66.305
-17.025	54.932
-18.387	48.597
-19.21	48.398
-18.745	49.07
-17.47	43.535
-16.301	31.468
-15.654	15.622
-15.625	-1.5152
-16.166	-17.968
-17.151	-32.053
-18.329	-42.327
-19.265	-48.479
-19.549	-52.964
-19.279	-59.642
-18.927	-69.886
-18.845	-82.618
-19.176	-96.201
-19.937	-109.09
-21.064	-119.76
-22.363	-126.65
-23.431	-129.01
-23.785	-128.62
-23.336	-129.59
-22.507	-134.6
-21.762	-143.33
-21.34	-154.04
-21.257	-164.83
-21.362	-174.31
-21.408	177.89
-21.177	170.72
-20.658	162.34
-20.062	151.61
-19.632	138.72
-19.513	124.66
-19.753	110.69
-20.293	98.093
-20.94	87.799
-21.416	79.559
-21.555	71.564
-21.491	61.75
-21.554	49.583
-22.026	36.31
-22.994	24.271
-24.27	16.093
-25.297	13.271
-25.379	13.1
-24.516	9.5664
-23.398	-0.053583
-22.577	-14.549
-22.284	-31.814
-22.586	-50.064
-23.497	-67.85
-25.033	-83.622
-27.177	-94.905
-29.585	-97.523
-30.854	-89.422
-29.814	-82.976
-28.032	-88.23
-26.821	-101.54
-26.5	-118.13
-27.068	-134.54
-28.396	-147.82
-30.14	-154.8
-31.416	-153.85
-31.31	-150.75
-30.322	-153.23
-29.365	-161.24
-28.731	-171.87
-28.354	176.77
-28.093	165.24
-27.875	153.23
-27.746	140.33
-27.816	126.69
-28.177	113.03
-28.848	100.61
-29.697	90.835
-30.392	84.125
-30.642	78.542
-30.555	71.272
-30.506	61.356
-30.809	49.798
-31.59	38.575
-32.719	29.685
-33.861	23.807
-34.745	19.399
-35.451	14.451
-36.212	8.9219
-37.013	4.2142
-37.51	0.17928
-37.565	-6.4389
-37.605	-18.261
-38.162	-34.624
-39.566	-52.896
-41.959	-68.682
-44.869	-73.937
-45.656	-66.409
-43.67	-70.349
-42.071	-90.163
-42.111	-117.51
-44.663	-148.57
-53.7	168.16
-49.533	-3.0572
-41.026	-37.674
-37.082	-64.347
-35.076	-88.26
-34.38	-109.01
-34.627	-124.69
-35.18	-133.16
-35.042	-136.64
-34.051	-143.24
-33.138	-156.51
-32.965	-174.38
-33.761	165.79
-35.621	146.07
-38.682	128.56
-43.192	117.32
-48.99	124.19
-51.431	157.83
-49.588	172.82
-47.903	171.68
-46.245	161.97
-44.705	143.27
-43.626	118.28
-43.091	91.402
-43.129	66.58
-43.79	47.551
-44.736	39.141
-44.375	41.376
-42.179	38.339
-40.248	23.602
-39.812	2.7517
-41.452	-18.514
-46.343	-30.222
-51.294	25.19
-43.385	43.757
-39.426	24.591
-38.036	-1.7111
-38.71	-32.117
-41.859	-68.667
-48.797	-133.32
-46.061	111.83
-40.503	62.669
-38.077	26.945
-37.463	-6.1105
-38.156	-38.049
-39.853	-68.236
-42.121	-94.247
-43.965	-113.15
-44.105	-128.26
-42.925	-148.32
-41.87	-174.49
-41.845	155.49
-43.642	121.62
-49.266	75.33
-52.357	-63.142
-43.261	-126.07
-39.446	-163.4
-38.006	162.97
-38.136	129.65
-39.635	94.044
-42.473	51.898
-45.886	-4.2272
-47.231	-69.136
-47.437	-118.04
-49.645	-147.26
-54.344	-140.57
-51.424	-106.21
-47.301	-115.74
-46.222	-137.31
-48.183	-161.17
-56.691	-179.43
-53.993	-49.23
-45.138	-70.997
-41.399	-98.056
-39.581	-126.29
-38.818	-155.3
-38.672	175.11
-38.829	145.82
-39.061	118.43
-39.251	94.641
-39.389	75.45
-39.524	61.024
-39.695	51.459
-39.797	47.375
-39.395	48.704
-37.99	51.678
-35.804	50.638
-33.527	43.909
-31.592	32.959
-30.133	19.544
-29.15	4.8274
-28.633	-10.502
-28.615	-25.754
-29.114	-39.619
-30.004	-49.872
-30.753	-54.72
-30.614	-56.707
-29.586	-61.906
-28.339	-72.703
-27.368	-87.786
-26.887	-105.08
-26.972	-122.45
-27.553	-137.55
-28.346	-148.21
-28.788	-153.97
-28.427	-158.24
-27.505	-165.21
-26.548	-175.48
-25.834	172.46
-25.406	160.21
-25.178	148.96
-24.961	139.24
-24.56	130.44
-23.918	121.19
-23.139	110.44
-22.378	97.906
-21.766	83.883
-21.392	69.036
-21.29	54.312
-21.406	40.783
-21.573	29.228
-21.551	19.427
-21.193	9.9475
-20.569	-0.82665
-19.872	-13.536
-19.262	-27.983
-18.841	-43.686
-18.683	-59.998
-18.814	-75.948
-19.149	-90.428
-19.459	-103.11
-19.556	-115.03
-19.449	-127.73
-19.302	-142.1
-19.299	-158.04
-19.568	-174.86
-20.161	168.47
-21.041	153.14
-22.042	140.13
